P7,P4,Cz,Pz,P3,P8,O1,O2,T8,F8,C4,F4,Fp2,Fz,C3,F3,Fp1,T7,F7,Oz,PO3,AF3,FC5,FC1,CP5,CP1,CP2,CP6,AF4,FC2,FC6,PO4,Timestamp

-31080.21875,14206.9208984375,23052.20703125,1604.9110107421875,26921.525390625,-6426.61376953125,-58438.6640625,-52918.63671875,20509.013671875,-483.69500732421875,10536.267578125,17276.154296875,-23572.232421875,44777.890625,-400000.0625,20612.90625,10885.595703125,-30878.07421875,5395.16015625,-16490.16796875,36862.75,16015.6533203125,27398.822265625,-23179.078125,-4095.35595703125,35411.2890625,-400000.0625,11417.7880859375,37235.4921875,-25496.90234375,15560.8486328125,2415.993896484375,11180.075466365
-31067.181640625,14212.0634765625,23105.912109375,1604.3919677734375,26940.60546875,-6396.9638671875,-58427.94921875,-52902.4609375,20533.884765625,-419.0220031738281,10543.8798828125,17322.150390625,-23573.77734375,44790.3515625,-400000.0625,20630.49609375,10814.3232421875,-30861.2578125,5426.16796875,-16473.05078125,36875.24609375,16036.9296875,27359.18359375,-23141.8671875,-4066.33203125,35426.82421875,-400000.0625,11437.7646484375,37258.515625,-25458.337890625,15571.91015625,2454.217041015625,11180.077466364999
-31054.59375,14219.173828125,23145.25390625,1606.0009765625,26958.6171875,-6370.4638671875,-58416.76953125,-52885.484375,20551.0703125,-371.57598876953125,10552.3203125,17335.80859375,-23621.10546875,44765.19921875,-400000.0625,20636.0234375,10724.7822265625,-30853.353515625,5409.5068359375,-16456.59765625,36881.32421875,16035.4521484375,27301.525390625,-23148.40625,-4037.955078125,35435.32421875,-400000.0625,11447.689453125,37252.46875,-25423.5546875,15549.9716796875,2489.787109375,11180.079466365
-31043.435546875,14232.0224609375,23157.9140625,1617.10498046875,26973.53125,-6353.68310546875,-58402.9375,-52870.08203125,20561.916015625,-356.906005859375,10565.28515625,17331.2265625,-23650.5859375,44745.34375,-400000.0625,20639.51171875,10706.12109375,-30846.046875,5388.77685546875,-16442.90234375,36887.92578125,16029.2197265625,27288.013671875,-23165.974609375,-4020.3701171875,35444.2578125,-400000.0625,11454.6884765625,37243.8671875,-25406.2265625,15531.783203125,2507.801025390625,11180.081466365
-31052.646484375,14228.2431640625,23120.767578125,1617.0670166015625,26960.427734375,-6373.25390625,-58410.74609375,-52881.828125,20546.287109375,-399.07598876953125,10558.7880859375,17302.43359375,-23652.310546875,44735.54296875,-400000.0625,20626.99609375,10753.2119140625,-30859.462890625,5368.3349609375,-16456.685546875,36880.453125,16013.833984375,27313.4453125,-23193.32421875,-4041.68994140625,35433.6171875,-400000.0625,11441.9560546875,37228.99609375,-25434.083984375,15522.0947265625,2481.716064453125,11180.083466365
-31062.03515625,14219.95703125,23107.330078125,1610.9539794921875,26949.76953125,-6383.66796875,-58419.37109375,-52892.07421875,20536.7421875,-413.6470031738281,10551.8896484375,17300.7109375,-23626.626953125,44748.77734375,-400000.0625,20623.21875,10797.6748046875,-30865.5078125,5381.9677734375,-16466.56640625,36875.625,16015.2421875,27339.59375,-23186.78515625,-4055.220947265625,35426.34765625,-400000.0625,11436.7353515625,37232.57421875,-25448.810546875,15534.54296875,2467.196044921875,11180.085466364999
-31048.736328125,14227.94140625,23148.51171875,1614.240966796875,26968.23828125,-6358.03515625,-58407.30078125,-52875.77734375,20555.580078125,-365.7380065917969,10561.947265625,17329.6484375,-23626.654296875,44754.1015625,-400000.0625,20636.470703125,10754.1474609375,-30852.181640625,5399.94287109375,-16450.068359375,36885.34375,16027.40625,27315.048828125,-23166.859375,-4027.533935546875,35439.34765625,-400000.0625,11451.1162109375,37244.546875,-25414.240234375,15541.19921875,2500.68408203125,11180.087466365
-31045.21875,14230.2734375,23155.486328125,1613.843994140625,26973.484375,-6352.6748046875,-58404.48046875,-52870.8046875,20556.986328125,-357.54400634765625,10563.3095703125,17321.92578125,-23656.564453125,44734.0078125,-400000.0625,20632.919921875,10715.9306640625,-30854.19921875,5380.42822265625,-16446.171875,36883.46875,16017.2431640625,27289.359375,-23181.4296875,-4018.2080078125,35438.2890625,-400000.0625,11450.169921875,37232.375,-25404.365234375,15525.04296875,2511.4169921875,11180.089466365
-31055.5078125,14222.7197265625,23119.626953125,1610.0489501953125,26957.748046875,-6374.89892578125,-58414.11328125,-52884.15234375,20539.64453125,-398.7950134277344,10554.1064453125,17295.08203125,-23655.216796875,44727.78125,-400000.0625,20620.884765625,10758.3046875,-30867.341796875,5363.865234375,-16462.203125,36874.80078125,16004.490234375,27313.458984375,-23199.04296875,-4040.73291015625,35426.30859375,-400000.0625,11435.0546875,37219.4375,-25432.283203125,15519.4951171875,2484.73095703125,11180.091466365
-31071.71484375,14212.5361328125,23067.44140625,1607.9449462890625,26932.8828125,-6408.68310546875,-58429.57421875,-52907.2109375,20515.94140625,-462.73199462890625,10542.3349609375,17273.158203125,-23618.37109375,44746.1875,-400000.0625,20611.49609375,10841.640625,-30878.982421875,5369.9072265625,-16485.6328125,36867.90234375,16003.328125,27368.072265625,-23198.951171875,-4078.37109375,35412.5625,-400000.0625,11419.3564453125,37221.06640625,-25477.236328125,15536.15625,2439.14697265625,11180.093466365
-31079.009765625,14206.3916015625,23054.478515625,1606.041015625,26921.748046875,-6424.46484375,-58438.8828125,-52918.61328125,20509.947265625,-480.3810119628906,10535.7119140625,17287.76953125,-23569.595703125,44782.49609375,-400000.0625,20617.197265625,10892.2861328125,-30875.796875,5407.6337890625,-16498.140625,36869.50390625,16021.9365234375,27406.037109375,-23169.419921875,-4096.1640625,35410.57421875,-400000.0625,11418.900390625,37243.890625,-25497.994140625,15568.359375,2417.3740234375,11180.095466364999
-31065.09375,14214.2880859375,23110.55078125,1607.3060302734375,26941.3359375,-6393.4619140625,-58426.015625,-52901.09765625,20535.607421875,-416.03399658203125,10544.9208984375,17334.8125,-23576.08984375,44792.453125,-400000.0625,20634.0,10811.533203125,-30857.9296875,5436.17919921875,-16478.3203125,36883.1796875,16042.427734375,27362.986328125,-23135.0234375,-4065.361083984375,35427.32421875,-400000.0625,11439.3330078125,37265.96875,-25458.830078125,15576.80078125,2456.40087890625,11180.097466365
-31060.4609375,14213.51953125,23143.763671875,1599.5899658203125,26951.62109375,-6375.05322265625,-58422.1796875,-52892.62109375,20545.798828125,-375.33099365234375,10545.6435546875,17342.498046875,-23628.59375,44761.83203125,-400000.0625,20632.041015625,10718.814453125,-30857.443359375,5414.119140625,-16469.01953125,36882.0703125,16033.666015625,27303.564453125,-23147.525390625,-4045.712890625,35430.4921875,-400000.0625,11443.736328125,37253.1484375,-25433.671875,15547.5849609375,2482.81298828125,11180.099466365
-31045.806640625,14227.177734375,23158.806640625,1612.6710205078125,26967.443359375,-6357.0380859375,-58406.31640625,-52874.89453125,20558.1484375,-358.42999267578125,10559.0947265625,17340.720703125,-23651.26953125,44745.69140625,-400000.0625,20637.126953125,10705.080078125,-30848.767578125,5395.30322265625,-16454.212890625,36891.47265625,16033.0615234375,27295.4453125,-23160.73046875,-4026.794921875,35441.609375,-400000.0625,11451.88671875,37246.8828125,-25414.52734375,15533.005859375,2502.84912109375,11180.101466365
-31055.1953125,14222.9482421875,23124.1875,1613.5880126953125,26954.70703125,-6375.951171875,-58414.38671875,-52886.40625,20542.810546875,-400.3680114746094,10553.064453125,17313.169921875,-23647.9921875,44738.95703125,-400000.0625,20626.05078125,10755.7841796875,-30859.296875,5375.1298828125,-16466.8515625,36884.234375,16020.2998046875,27323.830078125,-23181.861328125,-4046.2490234375,35431.7421875,-400000.0625,11437.607421875,37233.3359375,-25441.517578125,15524.7060546875,2477.926025390625,11180.103466364999
-31064.09765625,14214.8193359375,23111.53515625,1608.0,26944.3984375,-6387.77001953125,-58423.5625,-52897.96484375,20533.40234375,-415.4649963378906,10545.9658203125,17311.521484375,-23625.15234375,44750.9765625,-400000.0625,20621.671875,10798.10546875,-30863.986328125,5387.01806640625,-16477.599609375,36879.4609375,16021.3720703125,27347.78125,-23176.912109375,-4058.68408203125,35426.36328125,-400000.0625,11430.6689453125,37236.57421875,-25457.05078125,15534.623046875,2462.47412109375,11180.105466365
-31047.470703125,14225.9287109375,23156.990234375,1613.6939697265625,26965.55859375,-6358.990234375,-58409.36328125,-52878.46484375,20556.798828125,-362.1679992675781,10558.77734375,17343.255859375,-23626.9921875,44759.3046875,-400000.0625,20636.298828125,10756.20703125,-30847.576171875,5408.294921875,-16456.634765625,36892.07421875,16036.38671875,27325.150390625,-23155.064453125,-4029.113037109375,35441.3125,-400000.0625,11448.6474609375,37250.4609375,-25419.794921875,15542.9716796875,2499.35400390625,11180.107466365
-31040.744140625,14230.236328125,23168.154296875,1616.343994140625,26973.818359375,-6348.2568359375,-58402.328125,-52869.12890625,20563.419921875,-349.0039978027344,10565.32421875,17338.400390625,-23653.619140625,44742.5,-400000.0625,20636.072265625,10720.09375,-30845.21875,5391.546875,-16449.77734375,36893.50390625,16028.859375,27303.72265625,-23166.912109375,-4018.322998046875,35443.71875,-400000.0625,11451.564453125,37242.71484375,-25405.107421875,15529.9169921875,2514.10107421875,11180.109466365
-31041.1640625,14232.8408203125,23142.755859375,1623.552001953125,26969.611328125,-6358.63720703125,-58401.60546875,-52871.37109375,20556.279296875,-382.6260070800781,10567.1904296875,17319.56640625,-23644.048828125,44745.00390625,-400000.0625,20633.427734375,10765.802734375,-30846.2265625,5383.09423828125,-16454.76953125,36894.5859375,16025.2265625,27335.263671875,-23177.060546875,-4029.7490234375,35442.7734375,-400000.0625,11447.9853515625,37238.99609375,-25421.65234375,15534.3212890625,2496.840087890625,11180.111466365
-31053.40625,14230.4443359375,23096.03125,1627.31396484375,26951.232421875,-6386.67578125,-58411.5703125,-52889.109375,20537.96484375,-440.04901123046875,10560.23828125,17300.22265625,-23606.11328125,44763.9765625,-400000.0625,20627.298828125,10845.0400390625,-30853.392578125,5389.15283203125,-16472.287109375,36892.6171875,16024.884765625,27387.517578125,-23178.513671875,-4059.85205078125,35436.55078125,-400000.0625,11436.712890625,37240.5859375,-25461.337890625,15553.2236328125,2457.535888671875,11180.113466365
-31075.05078125,14211.462890625,23068.23046875,1611.3690185546875,26925.75390625,-6414.10595703125,-58433.515625,-52915.51171875,20519.154296875,-469.71099853515625,10539.93359375,17300.810546875,-23569.265625,44787.5078125,-400000.0625,20617.861328125,10888.56640625,-30863.95703125,5412.41015625,-16498.671875,36883.12109375,16029.794921875,27413.65625,-23163.22265625,-4090.85791015625,35421.3359375,-400000.0625,11423.1748046875,37249.62890625,-25496.37109375,15572.68359375,2422.22705078125,11180.115466365
-31062.18359375,14215.4345703125,23122.05078125,1610.3060302734375,26943.68359375,-6387.15185546875,-58423.74609375,-52899.94921875,20543.171875,-406.8590087890625,10546.6376953125,17345.236328125,-23575.830078125,44798.33984375,-400000.0625,20633.42578125,10816.275390625,-30847.927734375,5440.7890625,-16482.740234375,36894.91015625,16049.5634765625,27373.3203125,-23130.138671875,-4064.407958984375,35435.10546875,-400000.0625,11440.4931640625,37270.3125,-25459.029296875,15580.498046875,2458.426025390625,11180.117466365
-31045.705078125,14226.015625,23164.314453125,1615.7159423828125,26965.466796875,-6357.3310546875,-58407.09375,-52877.8984375,20565.080078125,-356.4020080566406,10559.6025390625,17360.1640625,-23620.68359375,44774.5078125,-400000.0625,20642.43359375,10725.7509765625,-30837.525390625,5427.509765625,-16460.92578125,36902.609375,16049.5849609375,27316.646484375,-23132.255859375,-4032.0830078125,35448.16015625,-400000.0625,11453.8525390625,37265.55859375,-25420.595703125,15558.5712890625,2498.27490234375,11180.119466365
-31030.029296875,14242.7470703125,23179.603515625,1631.31494140625,26985.06640625,-6336.64501953125,-58389.91015625,-52858.47265625,20580.044921875,-337.96099853515625,10576.2666015625,17356.83203125,-23651.779296875,44754.84375,-400000.0625,20648.4453125,10703.103515625,-30829.466796875,5406.89111328125,-16441.6328125,36913.87109375,16046.80859375,27300.505859375,-23151.390625,-4009.616943359375,35460.11328125,-400000.0625,11463.4169921875,37257.30859375,-25399.212890625,15541.0322265625,2521.922119140625,11180.121466364999
-31041.171875,14239.0419921875,23143.140625,1631.427001953125,26971.705078125,-6356.7919921875,-58397.50390625,-52870.49609375,20563.015625,-381.489013671875,10569.8447265625,17324.341796875,-23654.8125,44742.125,-400000.0625,20634.181640625,10750.1728515625,-30843.169921875,5383.64794921875,-16455.90234375,36904.19921875,16029.8623046875,27324.974609375,-23180.69921875,-4030.113037109375,35449.0234375,-400000.0625,11448.505859375,37238.3359375,-25427.5546875,15528.966796875,2496.011962890625,11180.123466365
-31053.43359375,14229.5029296875,23123.322265625,1623.1920166015625,26957.24609375,-6371.17822265625,-58408.921875,-52882.515625,20549.14453125,-402.364990234375,10558.64453125,17316.126953125,-23633.3359375,44749.33984375,-400000.0625,20626.279296875,10790.2587890625,-30852.091796875,5386.77197265625,-16470.47265625,36895.6328125,16025.7744140625,27343.130859375,-23179.27734375,-4046.7470703125,35437.765625,-400000.0625,11438.5693359375,37235.60546875,-25445.6796875,15532.39453125,2477.64404296875,11180.125466365
-31040.44140625,14235.671875,23161.462890625,1625.197021484375,26975.66796875,-6346.203125,-58396.53515625,-52866.90234375,20566.951171875,-355.8580017089844,10567.5703125,17341.216796875,-23636.255859375,44751.5234375,-400000.0625,20636.2265625,10744.4365234375,-30840.6796875,5401.09716796875,-16454.384765625,36904.328125,16035.349609375,27315.8984375,-23161.951171875,-4020.887939453125,35449.234375,-400000.0625,11452.4560546875,37246.09375,-25411.56640625,15535.158203125,2510.155029296875,11180.127466365
-31036.115234375,14237.3388671875,23169.091796875,1625.0479736328125,26981.419921875,-6338.23486328125,-58392.73046875,-52860.96484375,20568.96484375,-347.25201416015625,10570.26171875,17332.7734375,-23663.939453125,44731.12109375,-400000.0625,20631.435546875,10704.349609375,-30844.322265625,5383.23779296875,-16450.353515625,36900.96484375,16024.396484375,27291.587890625,-23177.21875,-4011.157958984375,35448.38671875,-400000.0625,11450.287109375,37234.09375,-25400.9765625,15516.7421875,2521.15087890625,11180.129466365
-31047.302734375,14229.564453125,23133.65625,1622.2110595703125,26965.962890625,-6359.85693359375,-58403.4140625,-52875.88671875,20551.6015625,-389.79901123046875,10560.17578125,17304.37109375,-23662.7890625,44725.6171875,-400000.0625,20617.46875,10746.78515625,-30857.056640625,5365.8310546875,-16464.6875,36891.37109375,16010.8193359375,27317.38671875,-23195.390625,-4033.6240234375,35436.390625,-400000.0625,11436.16796875,37220.2734375,-25428.986328125,15511.05078125,2494.386962890625,11180.131466365
-31063.94921875,14220.6650390625,23082.326171875,1620.06396484375,26941.96875,-6394.60107421875,-58420.390625,-52898.91796875,20528.662109375,-452.593994140625,10549.1865234375,17282.439453125,-23627.2265625,44744.9765625,-400000.0625,20607.744140625,10831.421875,-30868.923828125,5371.58203125,-16488.5546875,36883.4453125,16009.9599609375,27372.93359375,-23194.17578125,-4069.93603515625,35423.9921875,-400000.0625,11420.5283203125,37221.8671875,-25474.63671875,15527.4521484375,2450.056884765625,11180.133466365
-31074.369140625,14213.21484375,23065.15234375,1615.1700439453125,26927.568359375,-6411.80517578125,-58431.55078125,-52911.8828125,20520.525390625,-474.9830017089844,10540.453125,17295.65234375,-23579.041015625,44779.9375,-400000.0625,20610.42578125,10884.59375,-30868.32421875,5409.52392578125,-16502.9765625,36883.66015625,16026.716796875,27409.654296875,-23162.759765625,-4089.528076171875,35420.890625,-400000.0625,11417.2275390625,37243.9453125,-25498.240234375,15561.0302734375,2425.9970703125,11180.135466365
-31054.095703125,14223.7099609375,23125.3671875,1621.8590087890625,26952.21484375,-6375.98291015625,-58414.32421875,-52889.78515625,20550.216796875,-403.947998046875,10554.36328125,17345.548828125,-23578.09765625,44796.26953125,-400000.0625,20633.396484375,10813.3525390625,-30846.328125,5443.673828125,-16479.26171875,36901.28515625,16052.849609375,27370.421875,-23119.14453125,-4053.491943359375,35440.34375,-400000.0625,11441.298828125,37269.765625,-25453.376953125,15575.271484375,2468.85205078125,11180.137466365
-31037.0546875,14236.087890625,23169.05078125,1628.60302734375,26976.798828125,-6345.1689453125,-58396.4453125,-52866.87109375,20570.818359375,-350.15899658203125,10569.1748046875,17363.146484375,-23623.63671875,44774.81640625,-400000.0625,20643.060546875,10722.8564453125,-30835.83203125,5429.294921875,-16456.1796875,36910.03515625,16053.7197265625,27316.30859375,-23118.50390625,-4020.68310546875,35453.52734375,-400000.0625,11455.89453125,37266.06640625,-25412.814453125,15554.8076171875,2509.00390625,11180.139466364999
-31035.185546875,14238.1748046875,23172.64453125,1629.7060546875,26980.7109375,-6337.47705078125,-58392.140625,-52862.30859375,20570.60546875,-345.6940002441406,10571.4892578125,17348.62109375,-23663.0078125,44746.99609375,-400000.0625,20635.728515625,10694.4296875,-30841.90234375,5394.578125,-16451.412109375,36906.71484375,16040.0166015625,27295.310546875,-23143.53125,-4012.72607421875,35453.0859375,-400000.0625,11452.65234375,37246.7734375,-25406.001953125,15528.8408203125,2519.964111328125,11180.141466365
-31051.978515625,14226.3408203125,23127.896484375,1621.6240234375,26958.4453125,-6365.6181640625,-58408.37109375,-52881.82421875,20546.5859375,-396.42999267578125,10556.2109375,17312.732421875,-23666.880859375,44732.77734375,-400000.0625,20616.9609375,10738.1279296875,-30863.859375,5363.85205078125,-16473.71484375,36888.8828125,16019.4736328125,27317.341796875,-23174.984375,-4041.152099609375,35433.296875,-400000.0625,11429.560546875,37223.69921875,-25440.53515625,15514.3759765625,2485.303955078125,11180.143466365
-31066.37109375,14214.6298828125,23109.158203125,1612.5550537109375,26945.544921875,-6382.05908203125,-58421.55078125,-52895.91796875,20534.107421875,-415.8320007324219,10545.5126953125,17308.73046875,-23639.47265625,44744.4609375,-400000.0625,20609.396484375,10783.541015625,-30873.23046875,5372.27685546875,-16489.123046875,36879.16796875,16019.3759765625,27342.45703125,-23170.466796875,-4059.297119140625,35424.01171875,-400000.0625,11419.529296875,37224.91015625,-25460.931640625,15523.7490234375,2465.134033203125,11180.145466365
-31053.685546875,14222.853515625,23149.310546875,1613.7259521484375,26963.38671875,-6355.9267578125,-58408.88671875,-52880.3125,20553.78515625,-367.74798583984375,10554.943359375,17338.0390625,-23635.591796875,44752.20703125,-400000.0625,20622.943359375,10744.91015625,-30859.908203125,5393.98681640625,-16472.29296875,36886.98046875,16032.5087890625,27319.107421875,-23149.626953125,-4032.673095703125,35436.1875,-400000.0625,11433.423828125,37238.94140625,-25428.3125,15532.654296875,2497.18896484375,11180.147466365
-31050.826171875,14222.935546875,23156.501953125,1612.1400146484375,26967.5546875,-6349.81494140625,-58407.3046875,-52877.01171875,20554.1875,-359.5400085449219,10556.197265625,17332.55859375,-23661.16796875,44731.80078125,-400000.0625,20618.83203125,10707.2373046875,-30863.41015625,5377.70703125,-16470.0703125,36882.03515625,16022.3896484375,27293.515625,-23167.77734375,-4025.8291015625,35433.7578125,-400000.0625,11431.8642578125,37227.5703125,-25418.404296875,15517.021484375,2507.498046875,11180.149466365
-31052.689453125,14224.326171875,23130.78125,1618.6689453125,26961.7421875,-6363.65478515625,-58407.71484375,-52880.7265625,20545.498046875,-392.76300048828125,10556.935546875,17316.8984375,-23649.888671875,44735.0390625,-400000.0625,20614.376953125,10758.1103515625,-30867.025390625,5371.4189453125,-16476.525390625,36879.80859375,16019.1806640625,27325.580078125,-23180.552734375,-4038.196044921875,35430.3828125,-400000.0625,11427.22265625,37224.75390625,-25435.123046875,15519.8837890625,2491.51806640625,11180.151466365
-31062.4453125,14222.2646484375,23086.177734375,1623.9439697265625,26944.94921875,-6390.498046875,-58416.36328125,-52896.0078125,20529.970703125,-448.4169921875,10553.31640625,17300.27734375,-23607.69140625,44759.1328125,-400000.0625,20610.580078125,10838.5771484375,-30873.056640625,5381.39697265625,-16491.875,36877.15625,16021.9619140625,27381.189453125,-23176.4140625,-4068.155029296875,35424.5703125,-400000.0625,11417.4296875,37230.3828125,-25472.046875,15540.345703125,2452.9541015625,11180.153466365
-31073.0078125,14213.7421875,23067.09375,1618.70703125,26928.884765625,-6408.6689453125,-58428.953125,-52912.59765625,20520.22265625,-470.9330139160156,10542.78515625,17310.654296875,-23563.115234375,44791.125,-400000.0625,20611.544921875,10888.0947265625,-30874.7890625,5413.38818359375,-16508.05078125,36874.71484375,16035.404296875,27416.0234375,-23149.216796875,-4089.678955078125,35419.8515625,-400000.0625,11411.5244140625,37249.234375,-25495.69140625,15567.81640625,2428.054931640625,11180.155466365
-31059.166015625,14218.7998046875,23120.04296875,1618.634033203125,26947.52734375,-6379.4482421875,-58418.48828125,-52895.2578125,20543.8515625,-407.8949890136719,10549.578125,17356.283203125,-23569.244140625,44799.35546875,-400000.0625,20628.015625,10812.89453125,-30859.994140625,5440.72802734375,-16491.75390625,36884.79296875,16052.927734375,27371.8515625,-23116.8203125,-4060.931884765625,35435.33984375,-400000.0625,11430.0888671875,37269.7265625,-25457.638671875,15576.146484375,2465.4580078125,11180.157466364999
-31051.623046875,14218.4228515625,23153.556640625,1613.9110107421875,26960.314453125,-6358.98876953125,-58412.66015625,-52884.83984375,20555.37890625,-365.2130126953125,10552.0029296875,17365.806640625,-23620.208984375,44768.72265625,-400000.0625,20628.431640625,10718.384765625,-30859.8671875,5417.85498046875,-16478.9140625,36882.20703125,16045.2783203125,27310.16796875,-23128.251953125,-4038.949951171875,35439.015625,-400000.0625,11433.8427734375,37257.35546875,-25429.361328125,15546.72265625,2494.868896484375,11180.159466365
-31044.462890625,14224.2783203125,23160.6875,1617.4000244140625,26968.607421875,-6349.34912109375,-58404.859375,-52875.49609375,20558.486328125,-356.57000732421875,10558.490234375,17354.80859375,-23651.67578125,44744.2734375,-400000.0625,20625.33984375,10697.310546875,-30859.8359375,5389.5849609375,-16469.873046875,36881.27734375,16035.0322265625,27291.697265625,-23149.236328125,-4026.4609375,35439.23828125,-400000.0625,11433.3154296875,37242.49609375,-25418.298828125,15525.0439453125,2508.158935546875,11180.161466365
-31052.041015625,14221.591796875,23126.263671875,1618.2340087890625,26956.8671875,-6367.58203125,-58411.81640625,-52885.47265625,20543.8828125,-397.2340087890625,10554.4677734375,17325.470703125,-23646.724609375,44737.6484375,-400000.0625,20615.115234375,10751.5546875,-30870.994140625,5371.294921875,-16482.060546875,36875.4453125,16022.482421875,27321.306640625,-23168.970703125,-4045.906982421875,35430.09375,-400000.0625,11421.095703125,37228.2109375,-25445.265625,15519.6494140625,2484.0,11180.163466365
-31064.08984375,14210.255859375,23106.572265625,1608.8179931640625,26940.12109375,-6386.36181640625,-58424.56640625,-52900.83984375,20530.37890625,-418.1730041503906,10542.73828125,17318.380859375,-23621.984375,44748.49609375,-400000.0625,20607.90625,10798.8681640625,-30880.916015625,5381.8369140625,-16498.576171875,36865.55078125,16019.9462890625,27348.595703125,-23165.220703125,-4063.884033203125,35419.33203125,-400000.0625,11410.716796875,37229.1953125,-25466.06640625,15529.5439453125,2461.64892578125,11180.165466365
-31051.728515625,14215.3564453125,23145.77734375,1610.510986328125,26955.828125,-6362.96923828125,-58414.796875,-52887.58984375,20548.44921875,-372.0249938964844,10549.765625,17347.767578125,-23616.55078125,44760.2578125,-400000.0625,20620.46484375,10769.2412109375,-30868.46484375,5402.51220703125,-16483.677734375,36873.98046875,16033.9208984375,27331.234375,-23142.498046875,-4039.85693359375,35432.6953125,-400000.0625,11424.748046875,37244.7890625,-25433.580078125,15540.90234375,2492.053955078125,11180.167466365
-31039.638671875,14225.81640625,23164.564453125,1618.64501953125,26970.201171875,-6347.48583984375,-58402.78125,-52874.24609375,20560.130859375,-353.5,10560.23828125,17353.412109375,-23635.146484375,44753.7265625,-400000.0625,20627.037109375,10738.6748046875,-30859.859375,5395.35107421875,-16470.66796875,36880.625,16035.3154296875,27315.712890625,-23147.853515625,-4022.783935546875,35441.6875,-400000.0625,11434.818359375,37244.93359375,-25414.314453125,15536.0634765625,2512.39599609375,11180.169466365
-31046.248046875,14222.775390625,23134.58203125,1619.6309814453125,26960.05859375,-6364.52294921875,-58409.05859375,-52883.390625,20547.1953125,-392.4150085449219,10556.21875,17333.35546875,-23633.47265625,44752.46875,-400000.0625,20619.08984375,10775.0439453125,-30866.2890625,5382.505859375,-16482.296875,36875.375,16027.744140625,27344.626953125,-23161.087890625,-4041.0029296875,35433.18359375,-400000.0625,11426.396484375,37239.02734375,-25436.146484375,15535.330078125,2490.468017578125,11180.171466365
-31063.220703125,14212.1494140625,23084.697265625,1616.9720458984375,26936.193359375,-6399.76611328125,-58425.24609375,-52906.01953125,20524.10546875,-454.322998046875,10544.6513671875,17311.75390625,-23600.26953125,44771.5234375,-400000.0625,20610.734375,10849.392578125,-30877.89453125,5385.0849609375,-16506.7421875,36869.19921875,16024.314453125,27395.634765625,-23160.748046875,-4076.881103515625,35420.8828125,-400000.0625,11412.205078125,37241.46484375,-25481.38671875,15551.443359375,2445.27099609375,11180.173466365
-31078.294921875,14197.966796875,23062.533203125,1605.823974609375,26914.65234375,-6424.0498046875,-58443.359375,-52926.73828125,20510.326171875,-482.2300109863281,10529.279296875,17318.46875,-23555.970703125,44803.17578125,-400000.0625,20610.443359375,10901.53515625,-30882.62890625,5413.498046875,-16527.328125,36864.5234375,16034.4697265625,27428.2421875,-23133.630859375,-4103.35400390625,35412.21875,-400000.0625,11404.330078125,37258.32421875,-25511.8359375,15578.42578125,2413.490966796875,11180.175466364999
-31060.66796875,14208.8447265625,23122.494140625,1610.8050537109375,26939.078125,-6390.14697265625,-58426.26953125,-52905.21484375,20539.025390625,-412.04901123046875,10542.2939453125,17370.900390625,-23549.154296875,44821.7578125,-400000.0625,20637.01953125,10838.4501953125,-30859.0859375,5450.85302734375,-16503.8359375,36882.8984375,16060.748046875,27390.794921875,-23090.630859375,-4069.615966796875,35433.80859375,-400000.0625,11428.82421875,37288.12109375,-25469.306640625,15594.638671875,2456.5830078125,11180.177466365
-31046.3671875,14218.7646484375,23165.759765625,1615.41796875,26961.013671875,-6360.26708984375,-58411.63671875,-52884.06640625,20560.30078125,-360.1650085449219,10553.4990234375,17386.70703125,-23590.072265625,44796.82421875,-400000.0625,20645.595703125,10749.458984375,-30849.669921875,5441.30078125,-16484.548828125,36890.07421875,16059.0234375,27331.8046875,-23094.685546875,-4039.22509765625,35445.98046875,-400000.0625,11441.126953125,37283.203125,-25430.470703125,15574.7060546875,2495.966064453125,11180.179466365
-31041.705078125,14222.6005859375,23172.02734375,1617.5770263671875,26966.978515625,-6351.90576171875,-58406.8828125,-52876.921875,20564.310546875,-353.2120056152344,10558.3134765625,17372.50390625,-23622.72265625,44768.28125,-400000.0625,20641.181640625,10725.4013671875,-30852.693359375,5412.94189453125,-16478.603515625,36888.01953125,16043.5810546875,27307.05078125,-23120.16015625,-4029.196044921875,35446.1015625,-400000.0625,11438.9111328125,37265.83984375,-25419.8984375,15550.53125,2507.89990234375,11180.181466365
-31050.103515625,14221.40234375,23137.525390625,1620.592041015625,26955.96875,-6370.30078125,-58412.53515625,-52886.796875,20549.146484375,-395.6130065917969,10554.66015625,17340.50390625,-23619.533203125,44759.90625,-400000.0625,20630.4921875,10778.56640625,-30863.466796875,5394.3759765625,-16489.732421875,36881.0078125,16026.5322265625,27330.12890625,-23143.37890625,-4047.716064453125,35437.390625,-400000.0625,11427.1826171875,37249.88671875,-25444.712890625,15544.279296875,2483.72802734375,11180.183466365
-31057.427734375,14214.703125,23121.130859375,1617.08203125,26946.1484375,-6382.76513671875,-58420.16015625,-52897.28515625,20538.291015625,-414.7929992675781,10547.6669921875,17333.37109375,-23600.248046875,44772.01171875,-400000.0625,20627.74609375,10825.3017578125,-30869.390625,5402.1630859375,-16498.66796875,36876.109375,16024.4814453125,27352.814453125,-23138.74609375,-4061.243896484375,35431.70703125,-400000.0625,11419.318359375,37251.13671875,-25461.66796875,15556.2587890625,2467.94091796875,11180.185466365
-31048.55078125,14218.8359375,23158.01953125,1616.3170166015625,26960.986328125,-6361.59814453125,-58411.94140625,-52883.84765625,20553.564453125,-370.8840026855469,10553.794921875,17357.28515625,-23608.720703125,44773.6796875,-400000.0625,20636.8515625,10785.234375,-30860.373046875,5417.9912109375,-16486.1640625,36881.84375,16031.4736328125,27327.23046875,-23121.173828125,-4038.991943359375,35441.21484375,-400000.0625,11430.578125,37260.69140625,-25433.0234375,15560.70703125,2496.16796875,11180.187466365
-31041.15625,14224.837890625,23172.5859375,1620.39404296875,26971.453125,-6349.65283203125,-58403.24609375,-52874.2265625,20561.427734375,-355.15399169921875,10559.978515625,17355.50390625,-23631.361328125,44757.78125,-400000.0625,20637.78515625,10749.71875,-30858.48828125,5405.5517578125,-16477.56640625,36882.73046875,16026.2119140625,27304.74609375,-23131.73828125,-4026.215087890625,35443.34765625,-400000.0625,11434.7216796875,37253.03125,-25415.52734375,15548.42578125,2512.85205078125,11180.189466365
-31045.935546875,14221.7890625,23142.142578125,1621.177001953125,26960.75,-6367.06396484375,-58408.05078125,-52882.94921875,20548.83984375,-391.89801025390625,10555.359375,17330.34375,-23620.025390625,44754.99609375,-400000.0625,20630.98828125,10800.3427734375,-30867.771484375,5394.98583984375,-16488.50390625,36877.0546875,16017.9921875,27330.9765625,-23150.6875,-4043.301025390625,35436.4765625,-400000.0625,11425.302734375,37244.28515625,-25436.6640625,15548.36328125,2491.861083984375,11180.191466365
-31054.19921875,14220.5126953125,23099.392578125,1627.0009765625,26945.0625,-6392.8818359375,-58416.52734375,-52896.5625,20533.34375,-446.12298583984375,10552.7822265625,17314.603515625,-23574.185546875,44780.12109375,-400000.0625,20630.291015625,10889.4697265625,-30872.517578125,5408.26123046875,-16503.73046875,36877.84765625,16022.6181640625,27388.931640625,-23147.314453125,-4070.194091796875,35430.8515625,-400000.0625,11417.357421875,37251.109375,-25472.4453125,15572.3037109375,2454.27392578125,11180.193466364999
-31070.962890625,14205.134765625,23073.865234375,1615.010986328125,26923.591796875,-6417.4208984375,-58435.3125,-52918.5078125,20516.591796875,-474.3699951171875,10536.4560546875,17318.34765625,-23530.22265625,44807.1640625,-400000.0625,20626.306640625,10939.3408203125,-30880.1796875,5437.21923828125,-16525.779296875,36869.4921875,16031.263671875,27419.896484375,-23126.3125,-4097.97119140625,35419.92578125,-400000.0625,11407.126953125,37264.21484375,-25502.572265625,15597.23828125,2422.10400390625,11180.195466365
-31052.603515625,14215.6201171875,23133.751953125,1620.2220458984375,26948.423828125,-6382.81298828125,-58419.4453125,-52897.27734375,20545.599609375,-405.2449951171875,10548.44140625,17367.9453125,-23528.017578125,44823.59375,-400000.0625,20650.0390625,10875.54296875,-30858.30078125,5473.62890625,-16502.591796875,36887.4921875,16056.5341796875,27382.990234375,-23087.06640625,-4063.77001953125,35440.09375,-400000.0625,11432.11328125,37291.8984375,-25460.6640625,15614.791015625,2464.966064453125,11180.197466365
-31037.59765625,14225.107421875,23176.95703125,1624.41796875,26968.408203125,-6354.33984375,-58404.5078125,-52877.5703125,20566.18359375,-353.6189880371094,10560.1787109375,17385.078125,-23570.099609375,44800.42578125,-400000.0625,20658.53515625,10790.42578125,-30848.904296875,5459.7431640625,-16481.216796875,36895.18359375,16055.548828125,27327.228515625,-23092.359375,-4032.264892578125,35451.23828125,-400000.0625,11445.30859375,37287.17578125,-25423.30078125,15595.0361328125,2503.218017578125,11180.199466365
-31033.62890625,14228.4306640625,23182.08203125,1625.6319580078125,26974.173828125,-6347.35400390625,-58399.27734375,-52871.21484375,20568.87890625,-346.21600341796875,10563.728515625,17371.603515625,-23600.05078125,44772.23828125,-400000.0625,20654.52734375,10767.794921875,-30853.544921875,5428.48486328125,-16476.978515625,36892.890625,16040.201171875,27305.390625,-23116.560546875,-4023.23388671875,35451.2890625,-400000.0625,11443.5517578125,37267.0625,-25412.73046875,15570.357421875,2514.693115234375,11180.201466364999
-31048.55078125,14217.8017578125,23140.369140625,1620.4630126953125,26954.86328125,-6372.712890625,-58413.23046875,-52889.04296875,20546.48828125,-393.2749938964844,10552.4736328125,17335.03515625,-23598.91015625,44758.51953125,-400000.0625,20637.173828125,10814.69921875,-30871.96484375,5400.494140625,-16496.93359375,36878.34765625,16020.861328125,27327.755859375,-23145.087890625,-4050.301025390625,35434.96875,-400000.0625,11425.3427734375,37245.1484375,-25444.65234375,15557.4072265625,2482.202880859375,11180.203466365
-31058.580078125,14211.09375,23122.4453125,1616.449951171875,26943.4453125,-6385.8427734375,-58422.8671875,-52900.5234375,20535.37890625,-413.1300048828125,10544.6484375,17332.755859375,-23568.865234375,44773.5546875,-400000.0625,20630.671875,10865.44921875,-30878.10546875,5409.71923828125,-16506.9296875,36873.03515625,16023.6328125,27357.197265625,-23140.4765625,-4064.718017578125,35428.1171875,-400000.0625,11416.7490234375,37248.6875,-25463.09765625,15569.2666015625,2464.987060546875,11180.205466365
-31043.21484375,14221.8076171875,23163.47265625,1620.366943359375,26963.55078125,-6360.00390625,-58409.92578125,-52881.65625,20556.85546875,-364.031005859375,10556.2880859375,17363.8125,-23561.98828125,44783.9921875,-400000.0625,20646.248046875,10830.189453125,-30863.58203125,5429.6689453125,-16488.23828125,36884.48046875,16038.88671875,27335.46484375,-23117.85546875,-4037.3759765625,35442.70703125,-400000.0625,11431.1669921875,37263.3046875,-25429.265625,15578.1533203125,2498.781005859375,11180.207466365
-31031.869140625,14231.3037109375,23181.52734375,1629.4129638671875,26978.65625,-6342.916015625,-58396.953125,-52867.80859375,20568.802734375,-341.9960021972656,10566.7783203125,17368.34375,-23576.640625,44773.484375,-400000.0625,20654.630859375,10800.8193359375,-30856.517578125,5421.44482421875,-16475.412109375,36890.6953125,16037.99609375,27316.248046875,-23119.865234375,-4019.298095703125,35450.9453125,-400000.0625,11440.7744140625,37260.83984375,-25408.49609375,15571.49609375,2519.14990234375,11180.209466365
-31038.8984375,14228.03515625,23150.521484375,1629.9820556640625,26967.470703125,-6360.2509765625,-58402.4765625,-52876.94140625,20554.86328125,-379.8869934082031,10561.5087890625,17344.2421875,-23576.904296875,44766.1875,-400000.0625,20644.548828125,10837.3486328125,-30866.630859375,5406.296875,-16486.53125,36884.19921875,16025.482421875,27336.677734375,-23137.244140625,-4036.74609375,35442.3203125,-400000.0625,11429.962890625,37247.671875,-25430.376953125,15566.623046875,2497.989013671875,11180.211466364999
-31060.380859375,14214.14453125,23095.646484375,1622.1319580078125,26939.3125,-6399.33984375,-58422.71875,-52904.0234375,20526.0078125,-445.906005859375,10546.6328125,17315.61328125,-23548.404296875,44777.67578125,-400000.0625,20630.048828125,10912.1279296875,-30883.009765625,5406.9990234375,-16514.556640625,36871.7265625,16017.59765625,27383.4765625,-23143.30078125,-4077.47705078125,35424.59765625,-400000.0625,11409.5537109375,37242.44140625,-25478.896484375,15576.65625,2449.798095703125,11180.213466365
-31077.990234375,14198.1796875,23069.724609375,1610.135986328125,26916.25390625,-6425.341796875,-58442.22265625,-52926.15625,20509.25,-473.99798583984375,10529.3388671875,17319.052734375,-23505.373046875,44806.2109375,-400000.0625,20625.56640625,10965.083984375,-30890.025390625,5435.544921875,-16536.486328125,36863.5234375,16026.8427734375,27416.912109375,-23119.92578125,-4105.48779296875,35413.27734375,-400000.0625,11398.90234375,37257.1484375,-25510.15234375,15602.501953125,2416.56298828125,11180.215466365
-31067.369140625,14201.7822265625,23122.52734375,1607.60205078125,26933.623046875,-6397.1240234375,-58433.48046875,-52912.32421875,20532.64453125,-410.2749938964844,10535.6962890625,17365.984375,-23505.27734375,44820.8359375,-400000.0625,20643.3125,10902.5419921875,-30873.73046875,5466.2080078125,-16520.978515625,36874.94140625,16048.3828125,27381.3046875,-23079.3984375,-4078.718994140625,35427.578125,-400000.0625,11417.9814453125,37279.703125,-25473.32421875,15615.330078125,2452.405029296875,11180.217466365
-31039.81640625,14223.853515625,23178.5625,1623.5,26967.25390625,-6355.419921875,-58405.40234375,-52879.00390625,20566.484375,-345.5920104980469,10559.724609375,17395.212890625,-23540.1015625,44810.07421875,-400000.0625,20663.099609375,10820.466796875,-30852.341796875,5462.671875,-16487.638671875,36896.9921875,16060.4140625,27334.888671875,-23070.76953125,-4034.89697265625,35451.8359375,-400000.0625,11444.451171875,37287.29296875,-25422.134765625,15606.7841796875,2503.068115234375,11180.219466364999
-31031.203125,14232.9462890625,23189.134765625,1631.9000244140625,26978.654296875,-6342.35888671875,-58394.71875,-52866.66015625,20573.8671875,-331.8349914550781,10568.755859375,17383.90625,-23578.79296875,44782.87109375,-400000.0625,20661.818359375,10785.14453125,-30851.736328125,5429.6171875,-16476.05078125,36899.09765625,16049.4482421875,27310.994140625,-23094.525390625,-4019.916015625,35455.1875,-400000.0625,11448.37890625,37270.90234375,-25408.671875,15582.3115234375,2519.904052734375,11180.221466365
-31044.76953125,14225.15625,23148.029296875,1629.0460205078125,26960.654296875,-6364.6689453125,-58405.15234375,-52881.515625,20553.2265625,-377.47601318359375,10559.9404296875,17350.271484375,-23586.689453125,44769.203125,-400000.0625,20647.85546875,10828.1728515625,-30869.443359375,5402.19384765625,-16492.900390625,36886.81640625,16032.0283203125,27334.869140625,-23124.953125,-4045.114013671875,35441.0859375,-400000.0625,11432.01171875,37251.32421875,-25439.306640625,15569.1572265625,2490.590087890625,11180.223466365
-31059.6640625,14210.14453125,23122.388671875,1616.615966796875,26941.505859375,-6386.6572265625,-58422.1171875,-52899.046875,20537.009765625,-405.864990234375,10545.623046875,17337.98828125,-23566.6796875,44777.71875,-400000.0625,20636.857421875,10881.533203125,-30882.041015625,5410.52783203125,-16513.48046875,36874.43359375,16027.455078125,27360.96484375,-23123.787109375,-4066.903076171875,35427.04296875,-400000.0625,11417.8623046875,37248.359375,-25465.1875,15576.55859375,2465.39306640625,11180.225466365
-31047.603515625,14217.92578125,23161.162109375,1618.4520263671875,26959.544921875,-6361.80712890625,-58410.734375,-52883.84765625,20558.4921875,-358.87298583984375,10553.9228515625,17368.013671875,-23560.671875,44788.14453125,-400000.0625,20649.404296875,10849.791015625,-30868.244140625,5435.87890625,-16497.953125,36885.02734375,16041.537109375,27342.564453125,-23097.03515625,-4041.199951171875,35439.671875,-400000.0625,11433.533203125,37264.203125,-25433.224609375,15587.3798828125,2496.62109375,11180.227466365
-31038.6875,14224.8857421875,23176.892578125,1622.2850341796875,26971.337890625,-6347.52783203125,-58402.0078125,-52874.83203125,20567.517578125,-340.1310119628906,10559.7431640625,17370.400390625,-23574.51171875,44778.78125,-400000.0625,20652.6953125,10817.0849609375,-30864.072265625,5428.02978515625,-16487.6875,36888.66015625,16040.3935546875,27324.224609375,-23104.33984375,-4026.406982421875,35445.1484375,-400000.0625,11439.251953125,37260.4453125,-25415.5078125,15579.603515625,2512.912109375,11180.229466365
-31035.203125,14232.3994140625,23157.90625,1634.7149658203125,26970.388671875,-6353.962890625,-58397.4609375,-52874.78125,20564.376953125,-366.02801513671875,10566.654296875,17358.767578125,-23561.208984375,44784.17578125,-400000.0625,20653.361328125,10861.4462890625,-30861.060546875,5424.01611328125,-16487.318359375,36893.296875,16042.2685546875,27355.525390625,-23110.78125,-4033.68505859375,35447.36328125,-400000.0625,11439.7734375,37261.28125,-25426.671875,15585.7431640625,2502.00390625,11180.231466365
-31048.5625,14225.603515625,23110.3828125,1635.427978515625,26950.142578125,-6385.2138671875,-58410.53515625,-52892.30078125,20544.919921875,-424.08099365234375,10557.8115234375,17339.15234375,-23524.125,44800.38671875,-400000.0625,20647.0234375,10936.1416015625,-30868.384765625,5429.1259765625,-16508.068359375,36889.0234375,16040.65234375,27403.921875,-23113.078125,-4066.47998046875,35437.17578125,-400000.0625,11428.3896484375,37263.359375,-25468.255859375,15600.240234375,2461.5400390625,11180.233466365
-31065.703125,14209.9609375,23083.73046875,1623.845947265625,26927.173828125,-6411.0927734375,-58430.52734375,-52915.1875,20527.466796875,-453.99700927734375,10541.650390625,17338.947265625,-23481.515625,44825.5546875,-400000.0625,20642.591796875,10985.7080078125,-30876.859375,5455.39208984375,-16531.505859375,36882.16015625,16045.599609375,27432.490234375,-23097.119140625,-4095.60693359375,35425.03515625,-400000.0625,11417.8740234375,37275.03125,-25500.505859375,15622.9296875,2427.30810546875,11180.235466365
-31052.125,14215.5927734375,23137.435546875,1623.3709716796875,26947.126953125,-6382.580078125,-58418.5703125,-52898.296875,20551.931640625,-389.0459899902344,10551.458984375,17383.654296875,-23482.8515625,44837.234375,-400000.0625,20660.96484375,10917.2109375,-30858.37890625,5486.03515625,-16512.533203125,36895.48828125,16066.4267578125,27392.16796875,-23063.94140625,-4065.905029296875,35440.3203125,-400000.0625,11439.37890625,37298.078125,-25460.60546875,15633.2744140625,2464.951904296875,11180.237466364999
-31032.111328125,14229.431640625,23186.951171875,1631.3260498046875,26972.998046875,-6348.294921875,-58398.7109375,-52873.1796875,20576.091796875,-334.375,10566.2275390625,17401.455078125,-23529.759765625,44814.4921875,-400000.0625,20671.83984375,10821.09765625,-30846.017578125,5472.93115234375,-16488.544921875,36906.46484375,16068.4755859375,27335.40625,-23066.484375,-4030.15087890625,35457.296875,-400000.0625,11457.826171875,37295.94140625,-25417.52734375,15612.4013671875,2509.52490234375,11180.239466365
-31027.572265625,14233.8056640625,23192.66015625,1633.81298828125,26979.037109375,-6340.39501953125,-58394.08203125,-52867.37109375,20578.875,-327.9330139160156,10569.2060546875,17385.998046875,-23572.44140625,44780.421875,-400000.0625,20666.1328125,10784.3046875,-30851.095703125,5437.2099609375,-16483.45703125,36904.49609375,16053.447265625,27309.708984375,-23095.583984375,-4020.85107421875,35457.28515625,-400000.0625,11456.5546875,37273.265625,-25408.345703125,15581.818359375,2520.154052734375,11180.241466365
-31040.259765625,14227.251953125,23152.04296875,1631.8929443359375,26962.796875,-6363.68115234375,-58404.765625,-52882.99609375,20559.171875,-373.99798583984375,10561.1865234375,17352.412109375,-23577.509765625,44766.1875,-400000.0625,20651.53515625,10829.228515625,-30867.947265625,5409.078125,-16499.23828125,36892.5625,16034.373046875,27335.216796875,-23128.025390625,-4043.0859375,35444.56640625,-400000.0625,11440.041015625,37252.80078125,-25437.0859375,15567.876953125,2490.403076171875,11180.243466365
-31053.09765625,14217.365234375,23130.060546875,1625.4539794921875,26948.05859375,-6381.56884765625,-58416.86328125,-52895.71875,20544.80859375,-398.635986328125,10552.2099609375,17344.056640625,-23552.986328125,44778.36328125,-400000.0625,20644.322265625,10878.3701171875,-30876.544921875,5416.7529296875,-16513.4375,36886.234375,16034.7900390625,27366.779296875,-23128.234375,-4061.60302734375,35434.3046875,-400000.0625,11429.798828125,37252.78515625,-25458.1484375,15577.169921875,2470.429931640625,11180.245466365
-31038.341796875,14224.8798828125,23169.666015625,1628.029052734375,26965.861328125,-6356.0068359375,-58405.78125,-52879.4765625,20564.673828125,-352.5469970703125,10561.80859375,17374.78125,-23546.990234375,44789.7109375,-400000.0625,20656.81640625,10844.90625,-30861.982421875,5439.94189453125,-16497.63671875,36896.79296875,16051.8330078125,27350.96875,-23103.10546875,-4036.576904296875,35446.30859375,-400000.0625,11445.77734375,37268.37890625,-25426.814453125,15586.724609375,2502.5849609375,11180.247466365
-31021.29296875,14240.2890625,23192.6640625,1640.802001953125,26985.677734375,-6334.7158203125,-58388.25390625,-52860.46484375,20581.84765625,-327.2690124511719,10576.82421875,17384.025390625,-23561.73828125,44783.74609375,-400000.0625,20667.048828125,10808.3681640625,-30849.494140625,5439.259765625,-16478.79296875,36908.21875,16055.90234375,27334.73046875,-23100.93359375,-4012.823974609375,35460.1640625,-400000.0625,11459.869140625,37269.8359375,-25402.2265625,15583.244140625,2527.8759765625,11180.249466365
-31024.287109375,14241.2724609375,23165.771484375,1645.032958984375,26979.22265625,-6347.30419921875,-58390.59375,-52866.62109375,20571.390625,-359.7860107421875,10576.517578125,17364.2578125,-23557.9453125,44780.54296875,-400000.0625,20662.310546875,10845.1337890625,-30854.34375,5426.5751953125,-16485.845703125,36906.44921875,16049.12109375,27358.435546875,-23115.43359375,-4026.195068359375,35454.75,-400000.0625,11453.2265625,37261.4296875,-25419.521484375,15581.779296875,2509.844970703125,11180.251466365
-31038.591796875,14232.7255859375,23116.673828125,1643.655029296875,26957.736328125,-6379.4560546875,-58405.51953125,-52886.5234375,20549.97265625,-420.04400634765625,10565.27734375,17342.748046875,-23525.12109375,44795.484375,-400000.0625,20654.15234375,10919.087890625,-30865.263671875,5424.9912109375,-16508.111328125,36899.515625,16046.3291015625,27406.490234375,-23119.177734375,-4059.916015625,35442.75390625,-400000.0625,11438.751953125,37261.0703125,-25461.994140625,15591.5830078125,2467.346923828125,11180.253466365
-31057.388671875,14215.4130859375,23087.439453125,1630.989990234375,26932.65234375,-6407.27880859375,-58426.35546875,-52911.54296875,20532.45703125,-453.9800109863281,10546.5966796875,17342.021484375,-23488.7890625,44820.5625,-400000.0625,20646.7578125,10967.2822265625,-30874.123046875,5446.6611328125,-16532.556640625,36891.203125,16052.03515625,27437.6875,-23100.419921875,-4091.216064453125,35431.171875,-400000.0625,11425.7978515625,37270.76171875,-25496.4375,15612.390625,2432.693115234375,11180.255466364999
-31053.595703125,14210.7275390625,23132.482421875,1621.666015625,26941.9296875,-6387.97705078125,-58423.828125,-52905.0546875,20548.7734375,-397.5719909667969,10545.224609375,17379.265625,-23498.560546875,44826.98046875,-400000.0625,20656.740234375,10894.03515625,-30864.76171875,5471.02001953125,-16524.162109375,36895.92578125,16065.73828125,27393.591796875,-23068.392578125,-4071.511962890625,35437.37109375,-400000.0625,11436.2900390625,37286.7578125,-25468.072265625,15618.01953125,2461.10888671875,11180.257466365
-31031.955078125,14226.0712890625,23184.595703125,1630.177001953125,26969.79296875,-6352.05078125,-58402.49609375,-52878.30078125,20577.11328125,-336.9599914550781,10562.6123046875,17404.876953125,-23537.65625,44812.30859375,-400000.0625,20672.310546875,10809.451171875,-30848.0546875,5464.4541015625,-16496.76171875,36909.74609375,16072.947265625,27343.515625,-23062.326171875,-4033.51904296875,35455.98046875,-400000.0625,11456.833984375,37290.67578125,-25422.76171875,15606.4638671875,2506.618896484375,11180.259466365
-31017.224609375,14240.49609375,23200.4609375,1642.3280029296875,26987.001953125,-6333.14501953125,-58386.94921875,-52860.6875,20589.26953125,-319.92401123046875,10576.822265625,17401.22265625,-23570.775390625,44790.68359375,-400000.0625,20677.771484375,10781.3759765625,-30841.673828125,5439.44384765625,-16479.765625,36917.72265625,16067.8564453125,27324.419921875,-23078.390625,-4013.56005859375,35466.4453125,-400000.0625,11466.9765625,37280.85546875,-25401.8828125,15589.3251953125,2529.1201171875,11180.261466365
-31034.400390625,14229.109375,23154.828125,1635.3609619140625,26966.353515625,-6360.16796875,-58402.36328125,-52879.44921875,20564.8203125,-371.8320007324219,10564.3447265625,17361.927734375,-23579.30078125,44772.73828125,-400000.0625,20657.765625,10822.791015625,-30861.494140625,5408.759765625,-16501.201171875,36902.52734375,16046.3896484375,27344.359375,-23110.869140625,-4041.4560546875,35448.78515625,-400000.0625,11446.0751953125,37256.2421875,-25435.671875,15572.748046875,2494.910888671875,11180.263466365
-31054.884765625,14211.353515625,23124.71484375,1621.1519775390625,26942.423828125,-6384.80419921875,-58421.43359375,-52901.171875,20544.775390625,-404.7239990234375,10546.8564453125,17346.33203125,-23558.587890625,44778.2890625,-400000.0625,20643.185546875,10871.8642578125,-30878.091796875,5411.6337890625,-16523.39453125,36888.01953125,16038.4560546875,27369.646484375,-23114.39453125,-4068.423095703125,35431.82421875,-400000.0625,11428.6611328125,37250.78515625,-25466.564453125,15576.28125,2463.60791015625,11180.265466365
-31044.671875,14216.12890625,23162.806640625,1623.0350341796875,26957.150390625,-6362.84619140625,-58412.69140625,-52888.328125,20563.177734375,-359.47100830078125,10554.115234375,17375.26171875,-23550.537109375,44790.21484375,-400000.0625,20655.908203125,10843.634765625,-30864.9140625,5436.0751953125,-16510.611328125,36896.625,16053.76171875,27353.095703125,-23090.08984375,-4046.47802734375,35443.18359375,-400000.0625,11443.349609375,37265.65625,-25437.017578125,15585.6845703125,2492.077880859375,11180.267466365
-31033.806640625,14223.6552734375,23180.48046875,1627.697998046875,26969.05078125,-6348.7978515625,-58403.203125,-52877.16015625,20573.16015625,-340.4070129394531,10562.150390625,17377.93359375,-23569.322265625,44779.9140625,-400000.0625,20661.3359375,10808.8603515625,-30858.69921875,5429.56298828125,-16499.4296875,36900.21875,16055.056640625,27334.501953125,-23095.88671875,-4030.89990234375,35450.80859375,-400000.0625,11450.62890625,37264.44921875,-25418.7421875,15577.1796875,2510.656982421875,11180.269466365
-31038.236328125,14223.8232421875,23154.953125,1632.387939453125,26962.00390625,-6362.56494140625,-58406.359375,-52882.859375,20563.9765625,-373.55499267578125,10561.7939453125,17360.2890625,-23567.310546875,44779.796875,-400000.0625,20656.1953125,10847.12890625,-30862.818359375,5418.962890625,-16506.4921875,36895.8515625,16048.060546875,27359.072265625,-23110.064453125,-4043.512939453125,35446.41015625,-400000.0625,11443.4248046875,37258.57421875,-25435.99609375,15577.6533203125,2493.69091796875,11180.271466365
-31056.55078125,14214.21484375,23104.423828125,1629.114990234375,26938.0703125,-6397.56201171875,-58422.8125,-52905.8984375,20539.283203125,-433.9259948730469,10549.7236328125,17336.095703125,-23539.552734375,44793.34765625,-400000.0625,20645.74609375,10919.333984375,-30877.2265625,5419.9970703125,-16531.388671875,36884.99609375,16042.24609375,27403.513671875,-23119.560546875,-4080.153076171875,35430.99609375,-400000.0625,11427.3154296875,37256.8359375,-25480.626953125,15590.1884765625,2448.18505859375,11180.273466364999
-31074.216796875,14197.8046875,23076.654296875,1617.989990234375,26915.8203125,-6424.5322265625,-58442.203125,-52928.94140625,20523.099609375,-464.8110046386719,10531.681640625,17338.46484375,-23494.939453125,44820.2734375,-400000.0625,20641.703125,10969.798828125,-30885.25390625,5445.89013671875,-16554.369140625,36875.4296875,16048.857421875,27436.375,-23102.533203125,-4109.30712890625,35418.921875,-400000.0625,11415.8310546875,37270.609375,-25512.494140625,15613.927734375,2414.587890625,11180.275466365
-31053.869140625,14210.142578125,23140.1953125,1624.470947265625,26942.630859375,-6386.15576171875,-58422.96484375,-52903.3515625,20555.861328125,-390.42498779296875,10548.611328125,17391.380859375,-23487.185546875,44840.1953125,-400000.0625,20668.5859375,10902.9541015625,-30859.890625,5483.7412109375,-16528.384765625,36894.0546875,16076.0458984375,27401.89453125,-23059.49609375,-4071.673095703125,35442.015625,-400000.0625,11442.3017578125,37301.34375,-25465.2890625,15633.1279296875,2460.89111328125,11180.277466365
-31029.9296875,14228.771484375,23194.4453125,1635.56298828125,26973.69921875,-6346.9921875,-58398.80859375,-52873.8515625,20584.732421875,-327.1000061035156,10567.8662109375,17414.888671875,-23531.640625,44820.77734375,-400000.0625,20686.19140625,10807.8916015625,-30841.61328125,5473.6650390625,-16499.39453125,36909.12890625,16081.4345703125,27345.552734375,-23055.82421875,-4030.39892578125,35463.1953125,-400000.0625,11463.7568359375,37303.99609375,-25417.7890625,15616.369140625,2510.757080078125,11180.279466365
-31018.357421875,14240.29296875,23207.958984375,1644.508056640625,26988.25390625,-6331.17578125,-58386.6328125,-52859.3203125,20593.736328125,-311.5159912109375,10579.3291015625,17404.580078125,-23570.142578125,44791.828125,-400000.0625,20685.416015625,10773.427734375,-30839.046875,5441.1728515625,-16485.099609375,36912.83203125,16071.1865234375,27322.091796875,-23078.44921875,-4012.447998046875,35470.015625,-400000.0625,11469.2060546875,37289.21875,-25398.0546875,15590.8173828125,2530.97900390625,11180.281466365
-31034.224609375,14230.236328125,23163.130859375,1637.947021484375,26966.908203125,-6358.84423828125,-58401.046875,-52878.09375,20568.6953125,-363.82501220703125,10567.3896484375,17364.552734375,-23573.625,44774.375,-400000.0625,20665.787109375,10823.546875,-30859.111328125,5410.26806640625,-16505.73046875,36896.84765625,16048.6572265625,27345.201171875,-23113.34765625,-4039.116943359375,35452.59375,-400000.0625,11449.56640625,37264.515625,-25431.98046875,15574.6669921875,2496.652099609375,11180.283466365
-31046.361328125,14222.291015625,23138.875,1632.8680419921875,26952.373046875,-6377.65380859375,-58412.12890625,-52891.84375,20553.73046875,-393.3219909667969,10558.0908203125,17356.6484375,-23539.92578125,44789.94921875,-400000.0625,20660.65625,10886.40234375,-30867.392578125,5421.2548828125,-16518.6640625,36890.24609375,16049.0419921875,27382.978515625,-23110.93359375,-4057.8740234375,35443.23828125,-400000.0625,11440.6796875,37265.28125,-25455.69140625,15587.8662109375,2473.373046875,11180.285466365
-31033.99609375,14229.9345703125,23176.65625,1636.926025390625,26970.662109375,-6354.28515625,-58398.3984375,-52876.31640625,20571.234375,-350.3349914550781,10568.62109375,17385.23828125,-23533.201171875,44803.4296875,-400000.0625,20674.21484375,10853.4912109375,-30853.60546875,5445.9228515625,-16501.306640625,36902.19140625,16063.5634765625,27366.189453125,-23087.365234375,-4034.031005859375,35456.51171875,-400000.0625,11457.068359375,37281.7109375,-25424.423828125,15597.376953125,2503.94189453125,11180.287466365
-31029.0390625,14233.3671875,23187.7734375,1639.7099609375,26977.873046875,-6344.7841796875,-58392.99609375,-52868.80078125,20575.341796875,-336.94500732421875,10573.15625,17382.640625,-23560.697265625,44787.453125,-400000.0625,20673.6875,10808.365234375,-30852.763671875,5433.2890625,-16494.267578125,36904.0546875,16055.580078125,27338.06640625,-23097.80859375,-4023.512939453125,35459.71875,-400000.0625,11458.712890625,37273.3203125,-25410.357421875,15581.9951171875,2517.952880859375,11180.289466365
-31036.462890625,14229.232421875,23156.9921875,1639.22998046875,26966.59375,-6361.841796875,-58400.671875,-52878.8359375,20561.33984375,-371.9939880371094,10566.9951171875,17359.369140625,-23562.939453125,44779.02734375,-400000.0625,20663.1484375,10838.56640625,-30864.03125,5416.9951171875,-16506.36328125,36896.921875,16042.943359375,27354.666015625,-23117.73046875,-4041.780029296875,35449.9375,-400000.0625,11446.2421875,37261.15234375,-25431.349609375,15575.2958984375,2496.009033203125,11180.291466364999
-31055.35546875,14217.3916015625,23107.224609375,1633.916015625,26940.76953125,-6396.701171875,-58418.47265625,-52902.1953125,20535.59765625,-433.8949890136719,10552.5732421875,17335.296875,-23533.083984375,44790.88671875,-400000.0625,20652.07421875,10910.6640625,-30879.390625,5416.18408203125,-16532.16015625,36886.07421875,16035.5087890625,27399.91015625,-23125.228515625,-4078.3740234375,35434.15625,-400000.0625,11429.1474609375,37257.67578125,-25476.84765625,15585.5712890625,2451.201904296875,11180.293466365
-31064.09375,14211.009765625,23090.857421875,1629.844970703125,26928.53515625,-6413.54296875,-58428.29296875,-52913.79296875,20527.7578125,-454.9330139160156,10545.9853515625,17345.845703125,-23489.8359375,44825.4375,-400000.0625,20655.724609375,10961.0615234375,-30879.49609375,5447.1162109375,-16545.03515625,36887.7421875,16049.2060546875,27436.296875,-23100.39453125,-4097.4638671875,35431.41796875,-400000.0625,11426.4697265625,37277.65234375,-25498.8671875,15615.142578125,2429.4580078125,11180.295466365
-31052.806640625,14213.6845703125,23145.873046875,1627.2540283203125,26947.21484375,-6383.5439453125,-58418.7734375,-52898.7421875,20550.30078125,-387.3739929199219,10552.4580078125,17389.744140625,-23501.814453125,44831.109375,-400000.0625,20670.8203125,10877.9501953125,-30863.75390625,5471.77490234375,-16527.9921875,36897.42578125,16065.85546875,27388.474609375,-23072.08984375,-4066.905029296875,35445.1171875,-400000.0625,11445.88671875,37296.6953125,-25458.0625,15620.490234375,2468.383056640625,11180.297466365
-31029.876953125,14231.244140625,23199.0078125,1638.1190185546875,26978.0234375,-6344.19091796875,-58395.21484375,-52869.8359375,20578.408203125,-323.8909912109375,10570.8984375,17411.1640625,-23549.580078125,44810.21484375,-400000.0625,20684.24609375,10782.0576171875,-30847.478515625,5459.07421875,-16498.423828125,36912.47265625,16069.0478515625,27331.970703125,-23071.58203125,-4025.678955078125,35464.6484375,-400000.0625,11466.2041015625,37295.99609375,-25407.986328125,15601.1279296875,2516.201904296875,11180.299466365
-31020.916015625,14240.16015625,23209.751953125,1645.154052734375,26989.08984375,-6331.26220703125,-58386.234375,-52858.375,20584.1328125,-313.20599365234375,10579.34765625,17398.822265625,-23587.87890625,44782.015625,-400000.0625,20681.99609375,10757.431640625,-30848.107421875,5427.63916015625,-16486.962890625,36915.1015625,16056.625,27313.56640625,-23094.744140625,-4011.555908203125,35468.296875,-400000.0625,11467.0615234375,37278.515625,-25393.677734375,15575.8193359375,2533.195068359375,11180.301466365
-31033.234375,14233.349609375,23167.080078125,1645.2159423828125,26970.90234375,-6355.412109375,-58396.1484375,-52873.12890625,20564.142578125,-364.260986328125,10572.1640625,17363.634765625,-23584.982421875,44770.80859375,-400000.0625,20667.8828125,10820.908203125,-30863.59375,5405.42578125,-16503.671875,36904.4609375,16039.92578125,27348.369140625,-23122.904296875,-4034.93408203125,35455.8828125,-400000.0625,11451.4921875,37260.4140625,-25426.626953125,15566.322265625,2503.6640625,11180.303466365
-31046.6796875,14223.9541015625,23140.611328125,1638.8919677734375,26955.759765625,-6375.13916015625,-58407.609375,-52888.55078125,20549.32421875,-396.625,10561.59765625,17354.66796875,-23550.306640625,44786.92578125,-400000.0625,20661.552734375,10887.0888671875,-30872.017578125,5418.40576171875,-16519.07421875,36897.19140625,16041.9140625,27387.3671875,-23118.716796875,-4055.615966796875,35447.8671875,-400000.0625,11441.8173828125,37263.828125,-25452.853515625,15581.171875,2477.471923828125,11180.305466365
-31039.0390625,14226.431640625,23172.869140625,1637.387939453125,26967.5078125,-6358.2490234375,-58401.1875,-52878.22265625,20562.849609375,-356.79400634765625,10565.4619140625,17381.08203125,-23541.884765625,44799.03125,-400000.0625,20671.05859375,10856.349609375,-30860.91015625,5442.3779296875,-16508.28125,36904.015625,16054.4072265625,27369.546875,-23096.78515625,-4038.39599609375,35455.671875,-400000.0625,11453.810546875,37279.57421875,-25427.98828125,15592.4033203125,2500.56689453125,11180.307466365
-31026.9296875,14237.50390625,23193.37890625,1647.427978515625,26984.1640625,-6340.63623046875,-58387.31640625,-52863.3984375,20574.705078125,-333.37298583984375,10577.970703125,17389.435546875,-23558.3828125,44793.28125,-400000.0625,20679.2109375,10816.0927734375,-30851.443359375,5439.9140625,-16494.3125,36911.46875,16057.232421875,27348.845703125,-23098.578125,-4020.674072265625,35464.5703125,-400000.0625,11463.1328125,37280.65234375,-25406.11328125,15586.9873046875,2522.68994140625,11180.309466364999
-31032.41015625,14235.486328125,23164.466796875,1647.8499755859375,26974.8671875,-6357.23681640625,-58393.2734375,-52872.98046875,20560.75390625,-367.0830078125,10573.3515625,17367.2109375,-23560.826171875,44787.20703125,-400000.0625,20671.576171875,10843.3974609375,-30858.44921875,5425.1748046875,-16504.4296875,36904.51171875,16046.375,27365.333984375,-23115.46484375,-4036.0810546875,35456.8515625,-400000.0625,11452.7578125,37268.9609375,-25426.775390625,15581.91015625,2503.01708984375,11180.311466365
-31054.74609375,14219.2626953125,23108.869140625,1636.967041015625,26944.08203125,-6396.73095703125,-58417.35546875,-52900.8046875,20530.546875,-430.31500244140625,10555.427734375,17338.4765625,-23538.38671875,44792.9296875,-400000.0625,20655.490234375,10907.095703125,-30876.619140625,5418.30419921875,-16534.2890625,36890.515625,16034.7900390625,27402.47265625,-23126.63671875,-4077.781005859375,35437.26171875,-400000.0625,11430.1953125,37259.65234375,-25474.26953125,15586.103515625,2453.31494140625,11180.313466365
-31068.912109375,14207.267578125,23088.41796875,1629.032958984375,26924.595703125,-6417.9150390625,-58431.61328125,-52919.59375,20517.669921875,-455.5690002441406,10542.361328125,17343.17578125,-23496.673828125,44820.578125,-400000.0625,20655.09375,10956.2431640625,-30879.78515625,5447.876953125,-16552.03125,36886.01953125,16045.20703125,27433.771484375,-23103.1328125,-4101.60400390625,35429.12109375,-400000.0625,11423.966796875,37275.25390625,-25500.736328125,15610.3193359375,2425.156982421875,11180.315466365
-31052.388671875,14214.396484375,23148.626953125,1630.126953125,26947.419921875,-6384.0751953125,-58417.51171875,-52898.72265625,20545.9453125,-384.9289855957031,10553.306640625,17390.125,-23502.501953125,44831.6953125,-400000.0625,20675.869140625,10878.69921875,-30858.931640625,5478.72314453125,-16530.353515625,36899.8046875,16067.71875,27391.10546875,-23067.302734375,-4067.14697265625,35447.171875,-400000.0625,11446.162109375,37299.3515625,-25456.748046875,15620.1220703125,2468.177001953125,11180.317466364999
-31031.287109375,14229.037109375,23199.697265625,1638.248046875,26975.4765625,-6346.98583984375,-58396.8125,-52872.09765625,20571.748046875,-322.7330017089844,10570.4423828125,17411.376953125,-23549.794921875,44809.4453125,-400000.0625,20687.419921875,10783.90234375,-30844.404296875,5466.19677734375,-16504.001953125,36912.0078125,16071.140625,27335.974609375,-23069.5625,-4027.125,35462.62890625,-400000.0625,11465.7060546875,37297.78515625,-25408.62109375,15599.7490234375,2515.697021484375,11180.319466365
-31020.177734375,14239.98046875,23212.07421875,1648.6939697265625,26990.439453125,-6330.72607421875,-58383.01171875,-52858.12890625,20583.0,-309.51300048828125,10581.5703125,17401.048828125,-23590.087890625,44783.234375,-400000.0625,20687.30078125,10755.2861328125,-30840.80078125,5434.7919921875,-16489.8515625,36918.16015625,16060.9580078125,27315.365234375,-23093.11328125,-4009.4541015625,35469.5078125,-400000.0625,11471.91015625,37279.79296875,-25391.77734375,15576.11328125,2535.194091796875,11180.321466365
-31045.353515625,14220.6259765625,23155.892578125,1634.0179443359375,26959.34375,-6367.55517578125,-58407.68359375,-52886.4921875,20550.708984375,-372.572998046875,10559.4326171875,17353.3828125,-23600.029296875,44759.82421875,-400000.0625,20658.013671875,10806.2041015625,-30869.38671875,5397.48681640625,-16519.650390625,36894.4921875,16031.6904296875,27336.884765625,-23133.6796875,-4047.7080078125,35443.12890625,-400000.0625,11442.283203125,37247.76953125,-25438.111328125,15552.7177734375,2491.846923828125,11180.323466365
-31063.03125,14206.310546875,23123.537109375,1622.4329833984375,26936.9609375,-6392.89404296875,-58425.16796875,-52906.9140625,20531.5390625,-408.6919860839844,10544.78515625,17341.38671875,-23563.20703125,44775.8125,-400000.0625,20646.728515625,10875.33984375,-30881.828125,5405.9111328125,-16542.03125,36883.55859375,16031.3623046875,27376.130859375,-23132.720703125,-4075.677001953125,35428.3359375,-400000.0625,11426.357421875,37249.05859375,-25469.701171875,15564.8818359375,2459.697021484375,11180.325466365
-31048.6796875,14216.078125,23163.275390625,1628.4239501953125,26956.619140625,-6368.18701171875,-58412.0703125,-52889.734375,20553.7109375,-362.2510070800781,10557.5498046875,17376.62890625,-23542.072265625,44795.953125,-400000.0625,20663.421875,10851.294921875,-30864.40234375,5436.38818359375,-16523.3046875,36898.8203125,16053.4521484375,27368.38671875,-23100.78125,-4048.904052734375,35443.828125,-400000.0625,11444.1728515625,37271.296875,-25438.830078125,15584.8203125,2490.715087890625,11180.327466364999
-31039.630859375,14221.6083984375,23180.521484375,1633.04296875,26967.025390625,-6353.955078125,-58403.390625,-52880.21484375,20563.939453125,-342.2749938964844,10564.0859375,17380.158203125,-23560.189453125,44785.3671875,-400000.0625,20667.271484375,10807.7978515625,-30861.369140625,5428.81201171875,-16514.572265625,36903.96875,16051.53125,27343.166015625,-23103.109375,-4034.965087890625,35450.46875,-400000.0625,11449.5322265625,37269.0390625,-25421.2109375,15577.3984375,2508.31005859375,11180.329466365
-31043.39453125,14221.87890625,23156.47265625,1636.491943359375,26959.724609375,-6367.02587890625,-58405.9609375,-52885.44140625,20555.130859375,-373.49798583984375,10560.9951171875,17362.458984375,-23555.46484375,44784.328125,-400000.0625,20662.77734375,10841.255859375,-30867.306640625,5417.8828125,-16521.609375,36902.05078125,16045.77734375,27364.123046875,-23116.98828125,-4047.89306640625,35445.0234375,-400000.0625,11442.685546875,37262.63671875,-25437.97265625,15578.0380859375,2491.22998046875,11180.331466365
-31054.951171875,14215.982421875,23113.7734375,1637.1429443359375,26941.5078125,-6395.04296875,-58418.78515625,-52902.05078125,20538.294921875,-426.8420104980469,10552.5302734375,17343.84375,-23522.37890625,44803.3359375,-400000.0625,20655.904296875,10914.376953125,-30874.908203125,5424.64208984375,-16540.203125,36899.734375,16044.8310546875,27412.357421875,-23121.568359375,-4077.507080078125,35437.65625,-400000.0625,11430.91015625,37265.8125,-25476.7578125,15592.6923828125,2453.282958984375,11180.333466365
-31073.0546875,14199.0693359375,23087.24609375,1624.094970703125,26917.716796875,-6420.509765625,-58438.5078125,-52925.2734375,20521.298828125,-457.4469909667969,10535.8291015625,17344.609375,-23488.72265625,44827.55859375,-400000.0625,20650.873046875,10959.783203125,-30883.802734375,5447.47216796875,-16563.48828125,36891.78515625,16049.66796875,27441.56640625,-23106.748046875,-4107.5,35426.09765625,-400000.0625,11419.1669921875,37277.40234375,-25509.599609375,15613.3994140625,2419.333984375,11180.335466364999
-31055.931640625,14209.1025390625,23148.55078125,1626.5179443359375,26940.76953125,-6384.93505859375,-58422.77734375,-52905.65625,20549.986328125,-385.1000061035156,10549.1162109375,17395.5625,-23490.513671875,44842.30859375,-400000.0625,20673.62890625,10886.7578125,-30862.265625,5477.32177734375,-16541.193359375,36908.73828125,16072.544921875,27401.8359375,-23072.39453125,-4074.197998046875,35446.19921875,-400000.0625,11442.328125,37303.40625,-25464.619140625,15626.3046875,2461.0,11180.337466365
-31034.537109375,14224.91015625,23200.634765625,1635.66796875,26969.208984375,-6347.5068359375,-58401.984375,-52877.98828125,20575.712890625,-324.36199951171875,10567.4052734375,17416.279296875,-23540.369140625,44817.75390625,-400000.0625,20685.607421875,10787.2666015625,-30848.662109375,5460.35205078125,-16513.51171875,36920.4921875,16073.2314453125,27341.70703125,-23077.33984375,-4034.64599609375,35463.28125,-400000.0625,11461.2314453125,37301.34375,-25417.748046875,15605.33984375,2509.924072265625,11180.339466365
-31027.0234375,14231.23828125,23208.205078125,1642.3050537109375,26979.888671875,-6335.44921875,-58392.484375,-52866.99609375,20581.908203125,-313.4639892578125,10574.3359375,17403.361328125,-23581.068359375,44786.93359375,-400000.0625,20682.072265625,10758.0849609375,-30850.94921875,5424.06591796875,-16502.65625,36920.96484375,16058.7841796875,27317.158203125,-23102.98828125,-4020.215087890625,35466.15625,-400000.0625,11462.525390625,37281.7421875,-25404.91796875,15577.2822265625,2525.430908203125,11180.341466365
-31038.064453125,14225.8095703125,23166.8046875,1641.8160400390625,26965.3828125,-6357.923828125,-58401.45703125,-52880.58984375,20563.91015625,-361.3340148925781,10566.89453125,17368.453125,-23580.203125,44776.12890625,-400000.0625,20666.189453125,10817.8984375,-30864.46875,5397.7919921875,-16518.4453125,36911.15234375,16042.7958984375,27349.7578125,-23127.8984375,-4043.615966796875,35454.9140625,-400000.0625,11446.6962890625,37262.3046875,-25435.65234375,15567.3662109375,2495.799072265625,11180.343466365
-31048.896484375,14218.1123046875,23141.08984375,1636.116943359375,26950.181640625,-6376.869140625,-58414.1953125,-52894.9296875,20548.96875,-390.97601318359375,10557.814453125,17358.693359375,-23549.48046875,44791.25,-400000.0625,20659.3359375,10883.3720703125,-30873.421875,5409.10791015625,-16533.103515625,36903.8671875,16042.8779296875,27387.14453125,-23122.048828125,-4064.741943359375,35445.65625,-400000.0625,11437.3359375,37265.93359375,-25460.08984375,15582.384765625,2469.85205078125,11180.345466364999
-31037.638671875,14224.1220703125,23176.8671875,1638.449951171875,26964.7265625,-6355.14599609375,-58404.30078125,-52881.60546875,20566.20703125,-347.8840026855469,10565.498046875,17387.48046875,-23539.970703125,44804.58984375,-400000.0625,20672.16796875,10854.865234375,-30861.958984375,5435.4580078125,-16519.900390625,36911.66796875,16056.8798828125,27370.34765625,-23092.06640625,-4043.3701171875,35457.59375,-400000.0625,11449.69140625,37279.94921875,-25431.97265625,15594.2255859375,2499.056884765625,11180.347466365
-31035.4453125,14222.8359375,23187.212890625,1635.781005859375,26968.591796875,-6348.90576171875,-58403.30859375,-52878.76171875,20570.013671875,-336.9440002441406,10564.4931640625,17381.23828125,-23566.748046875,44784.98046875,-400000.0625,20667.48046875,10804.625,-30865.69140625,5422.06005859375,-16517.365234375,36906.5625,16046.4228515625,27338.505859375,-23102.93359375,-4035.547119140625,35454.2265625,-400000.0625,11447.189453125,37267.53515625,-25421.810546875,15576.7578125,2510.10888671875,11180.349466365
-31043.3671875,14218.0556640625,23158.599609375,1634.8570556640625,26957.080078125,-6366.3310546875,-58410.79296875,-52889.84375,20556.15625,-371.1830139160156,10558.798828125,17357.591796875,-23563.6796875,44779.0703125,-400000.0625,20656.37890625,10834.4892578125,-30875.55078125,5407.6171875,-16529.703125,36899.734375,16036.556640625,27357.541015625,-23119.16015625,-4052.741943359375,35445.20703125,-400000.0625,11435.931640625,37257.82421875,-25442.48828125,15572.7578125,2489.3359375,11180.351466365
-31056.341796875,14211.2373046875,23111.61328125,1635.3570556640625,26937.720703125,-6394.8427734375,-58422.5625,-52907.07421875,20537.009765625,-425.6199951171875,10550.603515625,17339.8828125,-23528.29296875,44798.80078125,-400000.0625,20651.27734375,10912.3857421875,-30883.599609375,5412.794921875,-16548.732421875,36894.96875,16036.2861328125,27408.943359375,-23120.62109375,-4082.883056640625,35437.36328125,-400000.0625,11425.1025390625,37261.859375,-25480.91015625,15589.8681640625,2449.529052734375,11180.353466364999
-31070.05078125,14199.080078125,23086.439453125,1626.68701171875,26918.16015625,-6417.9931640625,-58438.40234375,-52926.94921875,20523.341796875,-455.5589904785156,10538.521484375,17344.228515625,-23485.841796875,44829.71484375,-400000.0625,20651.474609375,10970.212890625,-30885.81640625,5442.77978515625,-16567.615234375,36890.59375,16046.7724609375,27446.625,-23099.951171875,-4110.40087890625,35428.86328125,-400000.0625,11417.88671875,37277.08203125,-25512.28125,15617.2001953125,2417.166015625,11180.355466365
-31056.58203125,14204.728515625,23143.37109375,1626.7120361328125,26937.7109375,-6388.2119140625,-58426.33203125,-52910.3828125,20548.501953125,-389.15399169921875,10547.498046875,17392.248046875,-23486.818359375,44844.6953125,-400000.0625,20671.99609375,10904.400390625,-30865.408203125,5477.51416015625,-16549.75,36904.24609375,16070.462890625,27410.544921875,-23061.224609375,-4080.868896484375,35445.45703125,-400000.0625,11438.759765625,37303.13671875,-25472.888671875,15630.560546875,2456.218994140625,11180.357466365
-31041.14453125,14214.2060546875,23190.681640625,1630.4169921875,26959.92578125,-6357.38916015625,-58411.19140625,-52889.0546875,20570.15234375,-333.5450134277344,10557.8330078125,17410.158203125,-23537.8828125,44820.63671875,-400000.0625,20680.642578125,10806.2177734375,-30854.04296875,5463.0009765625,-16529.05859375,36911.78125,16069.4619140625,27350.623046875,-23062.26953125,-4047.281005859375,35458.57421875,-400000.0625,11453.35546875,37300.3984375,-25433.08984375,15609.591796875,2497.27197265625,11180.359466365
-31031.486328125,14224.7119140625,23203.451171875,1638.1820068359375,26972.37890625,-6342.4560546875,-58401.1484375,-52876.2265625,20579.95703125,-318.9859924316406,10567.927734375,17402.65625,-23573.517578125,44796.88671875,-400000.0625,20680.869140625,10779.5029296875,-30851.224609375,5436.833984375,-16516.373046875,36913.54296875,16060.5390625,27332.5703125,-23084.0859375,-4030.5029296875,35464.66015625,-400000.0625,11457.5673828125,37288.87890625,-25415.9140625,15588.58203125,2515.27099609375,11180.361466365
-31038.109375,14224.37890625,23170.9375,1642.8609619140625,26962.732421875,-6358.85205078125,-58405.29296875,-52884.10546875,20566.369140625,-361.5459899902344,10566.1240234375,17375.220703125,-23572.037109375,44789.3828125,-400000.0625,20672.63671875,10829.416015625,-30858.599609375,5415.6572265625,-16526.533203125,36907.59765625,16048.541015625,27363.2109375,-23109.734375,-4047.735107421875,35459.1953125,-400000.0625,11446.98828125,37274.85546875,-25440.3046875,15583.1591796875,2492.699951171875,11180.363466365
-31051.30859375,14213.2685546875,23145.232421875,1635.2969970703125,26945.94140625,-6377.35205078125,-58418.80078125,-52900.3515625,20550.453125,-391.56500244140625,10554.994140625,17363.923828125,-23545.37890625,44800.875,-400000.0625,20664.8984375,10883.6435546875,-30867.18359375,5422.2421875,-16543.25390625,36898.4453125,16045.3525390625,27393.068359375,-23110.271484375,-4070.346923828125,35447.84375,-400000.0625,11436.0390625,37274.94921875,-25466.212890625,15592.84375,2466.658935546875,11180.365466365
-31043.21875,14215.6640625,23179.388671875,1633.7869873046875,26958.201171875,-6358.423828125,-58411.61328125,-52889.671875,20564.271484375,-349.3890075683594,10560.607421875,17389.802734375,-23542.119140625,44810.25390625,-400000.0625,20674.353515625,10852.7861328125,-30856.53125,5445.2841796875,-16531.572265625,36904.68359375,16056.1572265625,27373.44140625,-23087.568359375,-4049.9560546875,35456.57421875,-400000.0625,11448.9580078125,37290.140625,-25440.224609375,15601.3154296875,2491.949951171875,11180.367466365
-31031.599609375,14224.33984375,23200.09375,1640.3160400390625,26972.1640625,-6342.7412109375,-58400.1953125,-52876.84375,20574.939453125,-325.8299865722656,10568.7744140625,17394.318359375,-23559.8046875,44799.62890625,-400000.0625,20679.935546875,10811.3056640625,-30847.9296875,5438.966796875,-16517.806640625,36909.671875,16053.7373046875,27348.712890625,-23092.578125,-4032.010009765625,35464.65625,-400000.0625,11457.8203125,37288.4453125,-25417.484375,15591.43359375,2513.6630859375,11180.369466365
-31038.560546875,14220.5048828125,23172.072265625,1639.239013671875,26961.50390625,-6359.0927734375,-58406.46875,-52885.18359375,20559.96875,-361.62298583984375,10563.046875,17369.98828125,-23557.453125,44792.08203125,-400000.0625,20670.974609375,10842.11328125,-30855.44921875,5423.8408203125,-16529.685546875,36901.7890625,16042.353515625,27364.873046875,-23112.083984375,-4049.242919921875,35455.1640625,-400000.0625,11446.7861328125,37276.46875,-25438.013671875,15584.748046875,2493.680908203125,11180.371466364999
-31049.015625,14214.9541015625,23127.205078125,1640.6820068359375,26942.33984375,-6387.216796875,-58417.24609375,-52903.31640625,20540.359375,-417.364013671875,10556.234375,17352.13671875,-23522.337890625,44810.8046875,-400000.0625,20666.197265625,10918.8642578125,-30861.24609375,5430.255859375,-16547.2890625,36896.9453125,16043.3896484375,27414.904296875,-23114.841796875,-4078.803955078125,35446.47265625,-400000.0625,11434.9296875,37278.703125,-25476.37890625,15602.4228515625,2454.7939453125,11180.373466365
-31062.115234375,14204.6826171875,23101.97265625,1634.0780029296875,26924.17578125,-6410.85400390625,-58432.46875,-52922.19921875,20526.8046875,-448.2919921875,10545.1318359375,17356.12109375,-23478.31640625,44840.66796875,-400000.0625,20666.646484375,10975.208984375,-30864.103515625,5458.97119140625,-16565.49609375,36894.39453125,16054.2060546875,27453.693359375,-23094.095703125,-4105.115234375,35439.3515625,-400000.0625,11426.546875,37295.46484375,-25506.26953125,15631.23046875,2424.407958984375,11180.375466365
-31038.8984375,14221.0439453125,23165.962890625,1645.83203125,26954.125,-6370.58203125,-58409.90234375,-52893.9609375,20561.1875,-373.8340148925781,10563.908203125,17412.28515625,-23469.39453125,44864.06640625,-400000.0625,20695.064453125,10917.515625,-30835.98828125,5500.7939453125,-16536.740234375,36917.203125,16086.0966796875,27425.9609375,-23047.609375,-4065.287109375,35466.0859375,-400000.0625,11458.2724609375,37329.6875,-25456.60546875,15654.224609375,2471.916015625,11180.377466365
-31014.888671875,14238.779296875,23218.857421875,1658.14697265625,26983.802734375,-6330.98095703125,-58386.43359375,-52865.0546875,20590.359375,-312.1159973144531,10584.3291015625,17434.12890625,-23519.177734375,44842.55078125,-400000.0625,20710.71484375,10817.0556640625,-30819.267578125,5490.212890625,-16506.72265625,36931.48046875,16089.3857421875,27364.623046875,-23050.43359375,-4024.364990234375,35484.98046875,-400000.0625,11479.638671875,37330.08203125,-25408.25,15635.11328125,2522.02392578125,11180.379466365
-31011.6796875,14242.6552734375,23224.6796875,1660.071044921875,26991.04296875,-6322.5390625,-58380.921875,-52858.09375,20592.525390625,-303.3810119628906,10588.8828125,17415.7578125,-23567.607421875,44805.84375,-400000.0625,20702.806640625,10774.31640625,-30824.5546875,5448.69189453125,-16499.5859375,36927.5546875,16070.005859375,27330.427734375,-23083.203125,-4012.958984375,35482.71484375,-400000.0625,11475.830078125,37304.28515625,-25396.791015625,15600.45703125,2535.06005859375,11180.381466365
-31028.248046875,14232.73046875,23181.810546875,1652.72998046875,26972.89453125,-6348.5400390625,-58394.75,-52874.94921875,20567.6328125,-353.6960144042969,10575.5908203125,17375.08203125,-23574.634765625,44784.83984375,-400000.0625,20682.166015625,10820.4765625,-30844.349609375,5415.92822265625,-16517.953125,36911.01171875,16045.84765625,27349.1328125,-23116.474609375,-4038.884033203125,35464.93359375,-400000.0625,11454.8818359375,37276.953125,-25430.111328125,15579.5888671875,2502.928955078125,11180.383466365
-31041.271484375,14221.962890625,23155.673828125,1645.1739501953125,26956.52734375,-6367.716796875,-58408.28125,-52890.82421875,20551.30078125,-384.4750061035156,10563.578125,17361.4296875,-23547.30078125,44794.6640625,-400000.0625,20673.4453125,10876.10546875,-30855.88671875,5420.6650390625,-16534.94921875,36902.203125,16043.2138671875,27380.478515625,-23114.337890625,-4059.4609375,35453.16015625,-400000.0625,11442.75,37275.15234375,-25454.62890625,15587.9423828125,2477.492919921875,11180.385466365
-31031.287109375,14226.048828125,23190.658203125,1645.458984375,26969.87890625,-6348.380859375,-58400.40625,-52879.21875,20565.8671875,-342.40301513671875,10570.07421875,17386.82421875,-23541.505859375,44804.06640625,-400000.0625,20683.20703125,10846.052734375,-30846.34765625,5442.38916015625,-16522.921875,36908.72265625,16055.1103515625,27364.076171875,-23092.1015625,-4040.02587890625,35461.9609375,-400000.0625,11453.9052734375,37288.81640625,-25426.140625,15597.884765625,2503.825927734375,11180.387466365
-31024.611328125,14228.4873046875,23205.73046875,1647.532958984375,26979.171875,-6336.30615234375,-58394.0859375,-52870.66015625,20571.5859375,-324.2030029296875,10574.619140625,17387.02734375,-23567.419921875,44790.28125,-400000.0625,20682.076171875,10802.9345703125,-30843.423828125,5430.9208984375,-16515.375,36908.0390625,16049.330078125,27337.607421875,-23101.7109375,-4027.0859375,35465.53515625,-400000.0625,11457.498046875,37281.296875,-25409.416015625,15584.4462890625,2521.757080078125,11180.389466364999
-31031.373046875,14222.865234375,23176.2265625,1645.2230224609375,26967.126953125,-6352.94677734375,-58402.515625,-52880.8359375,20557.505859375,-359.010009765625,10568.0234375,17363.283203125,-23567.890625,44783.94921875,-400000.0625,20670.994140625,10837.986328125,-30852.349609375,5416.5341796875,-16527.865234375,36898.71484375,16037.236328125,27355.669921875,-23123.44921875,-4044.06298828125,35455.9140625,-400000.0625,11445.9951171875,37269.9296875,-25430.919921875,15578.3095703125,2500.31201171875,11180.391466365
-31044.39453125,14217.4580078125,23128.876953125,1644.0250244140625,26945.9765625,-6383.3740234375,-58414.40234375,-52900.62890625,20537.98046875,-415.7619934082031,10559.4453125,17342.23828125,-23533.87109375,44800.87109375,-400000.0625,20662.490234375,10914.7744140625,-30862.27734375,5421.72509765625,-16547.236328125,36893.05078125,16034.814453125,27405.275390625,-23125.818359375,-4076.048095703125,35445.84765625,-400000.0625,11433.818359375,37270.94140625,-25471.63671875,15595.6484375,2459.486083984375,11180.393466365
-31059.822265625,14205.6142578125,23100.91015625,1638.487060546875,26926.837890625,-6407.7470703125,-58430.01953125,-52920.62109375,20524.203125,-448.37298583984375,10547.90625,17344.484375,-23492.396484375,44830.5859375,-400000.0625,20661.94140625,10970.2431640625,-30867.228515625,5448.546875,-16566.783203125,36888.63671875,16044.7412109375,27443.044921875,-23103.41796875,-4102.9990234375,35436.62109375,-400000.0625,11425.52734375,37284.61328125,-25503.111328125,15621.271484375,2428.3349609375,11180.395466365
-31047.494140625,14210.1103515625,23151.830078125,1637.946044921875,26944.162109375,-6380.69287109375,-58419.6484375,-52905.3671875,20547.755859375,-386.4930114746094,10555.498046875,17390.12109375,-23489.8828125,44846.92578125,-400000.0625,20680.1953125,10906.265625,-30849.36328125,5482.73681640625,-16549.455078125,36901.3203125,16067.3408203125,27408.193359375,-23066.400390625,-4075.2919921875,35450.71484375,-400000.0625,11444.4873046875,37310.046875,-25467.943359375,15636.03515625,2462.93896484375,11180.397466365
-31032.001953125,14221.1298828125,23198.84375,1642.0570068359375,26967.046875,-6348.9189453125,-58404.78515625,-52884.171875,20569.521484375,-329.4360046386719,10567.8876953125,17410.265625,-23533.390625,44823.4921875,-400000.0625,20689.373046875,10811.41796875,-30837.140625,5472.54296875,-16527.59375,36910.10546875,16069.6650390625,27350.66015625,-23066.83984375,-4041.722900390625,35463.671875,-400000.0625,11459.1923828125,37308.71484375,-25427.01953125,15617.4560546875,2503.339111328125,11180.399466365
-31022.96875,14229.8642578125,23211.037109375,1648.2939453125,26978.732421875,-6333.787109375,-58395.078125,-52872.3046875,20576.326171875,-313.9670104980469,10576.2021484375,17401.6640625,-23569.6171875,44797.59765625,-400000.0625,20688.408203125,10779.9951171875,-30836.125,5444.0419921875,-16516.052734375,36912.515625,16060.4716796875,27327.6484375,-23087.48046875,-4026.875,35467.40234375,-400000.0625,11463.73046875,37293.33203125,-25410.326171875,15594.3037109375,2521.68896484375,11180.401466365
-31032.072265625,14223.646484375,23173.62890625,1646.9229736328125,26964.6015625,-6354.10302734375,-58403.8046875,-52884.8046875,20559.298828125,-358.6600036621094,10569.3837890625,17368.302734375,-23573.533203125,44784.828125,-400000.0625,20674.62109375,10825.4755859375,-30849.056640625,5417.326171875,-16531.515625,36901.56640625,16044.2265625,27351.91015625,-23114.65234375,-4047.575927734375,35455.55859375,-400000.0625,11449.341796875,37274.91015625,-25436.966796875,15581.87890625,2495.284912109375,11180.403466365
-31041.474609375,14217.59375,23151.37890625,1643.5780029296875,26952.158203125,-6369.578125,-58412.1953125,-52895.97265625,20547.451171875,-384.87799072265625,10561.37109375,17360.73828125,-23546.880859375,44797.8671875,-400000.0625,20670.220703125,10882.412109375,-30854.76171875,5426.06982421875,-16543.212890625,36897.41796875,16045.3349609375,27384.53515625,-23111.87890625,-4065.22705078125,35449.234375,-400000.0625,11442.220703125,37277.07421875,-25458.23828125,15595.060546875,2475.714111328125,11180.405466365
-31025.416015625,14228.359375,23191.640625,1650.9930419921875,26973.892578125,-6342.27587890625,-58395.640625,-52876.49609375,20569.119140625,-334.739013671875,10574.23046875,17392.431640625,-23538.919921875,44812.015625,-400000.0625,20687.302734375,10853.8212890625,-30838.94921875,5452.14501953125,-16522.396484375,36911.42578125,16063.0029296875,27368.43359375,-23084.185546875,-4035.590087890625,35465.7109375,-400000.0625,11460.515625,37295.1484375,-25423.130859375,15607.65234375,2510.555908203125,11180.407466364999
-31017.1875,14233.3759765625,23208.037109375,1652.614990234375,26983.9765625,-6328.2568359375,-58389.0625,-52866.8046875,20576.169921875,-315.7359924316406,10579.7216796875,17391.03515625,-23569.11328125,44794.28125,-400000.0625,20687.876953125,10802.6953125,-30836.17578125,5436.7890625,-16513.81640625,36912.6015625,16056.86328125,27337.767578125,-23094.78125,-4020.85205078125,35468.44921875,-400000.0625,11463.9287109375,37285.765625,-25405.0390625,15591.2314453125,2528.800048828125,11180.409466365
-31027.9453125,14226.326171875,23176.919921875,1649.133056640625,26970.447265625,-6347.97705078125,-58398.56640625,-52879.33984375,20559.505859375,-353.22601318359375,10572.06640625,17363.04296875,-23573.9921875,44782.5546875,-400000.0625,20674.056640625,10834.7470703125,-30847.986328125,5415.6611328125,-16527.5703125,36902.734375,16041.8447265625,27354.173828125,-23119.8203125,-4040.319091796875,35455.43359375,-400000.0625,11449.455078125,37271.04296875,-25428.1640625,15582.9091796875,2504.472900390625,11180.411466365
-31043.64453125,14217.857421875,23128.322265625,1648.093994140625,26947.923828125,-6380.13623046875,-58412.6953125,-52899.40234375,20537.14453125,-411.3529968261719,10562.94921875,17341.353515625,-23541.65234375,44798.62109375,-400000.0625,20665.03515625,10913.0439453125,-30858.94140625,5420.8017578125,-16548.056640625,36896.21484375,16038.23828125,27405.2109375,-23128.4765625,-4073.443115234375,35442.9375,-400000.0625,11438.0166015625,37270.4609375,-25469.392578125,15597.6396484375,2461.998046875,11180.413466365
-31060.50390625,14204.50390625,23096.123046875,1638.7080078125,26924.40234375,-6408.3330078125,-58431.0,-52921.109375,20520.23828125,-448.4519958496094,10547.7255859375,17342.6875,-23497.048828125,44826.12109375,-400000.0625,20660.794921875,10966.8232421875,-30866.818359375,5447.13623046875,-16570.783203125,36888.85546875,16045.6396484375,27442.880859375,-23111.6484375,-4104.05419921875,35431.578125,-400000.0625,11427.3642578125,37281.09375,-25504.79296875,15621.8154296875,2426.923095703125,11180.415466365
-31049.7890625,14206.62109375,23144.4921875,1635.1829833984375,26940.23046875,-6383.35791015625,-58424.3828125,-52909.76171875,20541.23046875,-390.5580139160156,10551.49609375,17386.3515625,-23490.9765625,44840.3515625,-400000.0625,20674.896484375,10906.390625,-30851.384765625,5477.39404296875,-16557.732421875,36897.890625,16065.3046875,27408.4375,-23073.611328125,-4079.737060546875,35444.40234375,-400000.0625,11444.6357421875,37303.73828125,-25471.515625,15635.1337890625,2457.948974609375,11180.417466365
-31025.478515625,14227.228515625,23200.59765625,1647.261962890625,26972.484375,-6341.56396484375,-58399.03515625,-52879.38671875,20570.732421875,-325.7860107421875,10572.04296875,17415.490234375,-23526.37890625,44827.0390625,-400000.0625,20692.03515625,10816.3662109375,-30831.90234375,5471.62890625,-16527.564453125,36916.015625,16074.244140625,27355.74609375,-23064.123046875,-4038.116943359375,35466.78515625,-400000.0625,11470.6064453125,37310.6875,-25421.880859375,15623.9443359375,2507.9599609375,11180.419466365
-31018.87109375,14232.1787109375,23209.865234375,1650.7340087890625,26980.58984375,-6330.671875,-58391.37890625,-52869.96484375,20575.19140625,-313.49700927734375,10577.2412109375,17404.55078125,-23569.7265625,44795.51171875,-400000.0625,20686.5859375,10775.7197265625,-30834.47265625,5438.09521484375,-16519.0859375,36915.49609375,16059.806640625,27325.9921875,-23089.69921875,-4025.68798828125,35468.0078125,-400000.0625,11471.4287109375,37291.31640625,-25408.51953125,15595.50390625,2523.2109375,11180.421466365
-31030.763671875,14224.884765625,23172.966796875,1648.9649658203125,26966.482421875,-6351.1201171875,-58400.4609375,-52883.1875,20558.501953125,-356.93701171875,10569.33984375,17370.94140625,-23577.48828125,44778.69140625,-400000.0625,20669.76171875,10816.607421875,-30847.228515625,5410.30615234375,-16533.306640625,36903.4921875,16040.3623046875,27344.72265625,-23119.990234375,-4046.741943359375,35454.359375,-400000.0625,11456.7021484375,37268.84765625,-25435.88671875,15578.9765625,2496.528076171875,11180.423466365
-31040.875,14218.8935546875,23150.45703125,1645.739013671875,26954.802734375,-6368.14111328125,-58410.3515625,-52894.64453125,20547.2421875,-382.52398681640625,10561.283203125,17361.130859375,-23551.234375,44789.78125,-400000.0625,20662.931640625,10870.2783203125,-30852.490234375,5418.68505859375,-16545.001953125,36896.97265625,16040.3623046875,27377.359375,-23117.20703125,-4062.85400390625,35447.39453125,-400000.0625,11449.494140625,37269.37890625,-25456.328125,15591.3896484375,2476.534912109375,11180.425466364999
-31032.224609375,14223.515625,23185.9296875,1645.6500244140625,26967.376953125,-6347.544921875,-58401.5390625,-52882.734375,20562.072265625,-340.33599853515625,10568.6572265625,17387.203125,-23545.52734375,44798.9765625,-400000.0625,20672.74609375,10841.09375,-30840.384765625,5439.6279296875,-16531.744140625,36903.26953125,16052.66015625,27360.900390625,-23093.365234375,-4042.465087890625,35457.35546875,-400000.0625,11463.4912109375,37283.19921875,-25429.61328125,15599.75,2504.76708984375,11180.427466365
-31021.3359375,14230.8369140625,23205.119140625,1650.4439697265625,26980.060546875,-6330.92822265625,-58390.609375,-52869.50390625,20573.185546875,-315.6809997558594,10578.1982421875,17393.40625,-23562.890625,44788.38671875,-400000.0625,20676.2421875,10803.498046875,-30832.837890625,5432.40380859375,-16519.0390625,36907.55078125,16052.537109375,27338.064453125,-23097.109375,-4025.6640625,35463.0546875,-400000.0625,11472.41796875,37279.08984375,-25408.091796875,15589.2314453125,2525.638916015625,11180.429466365
-31021.291015625,14234.2900390625,23182.00390625,1657.5989990234375,26977.046875,-6339.1708984375,-58390.4375,-52872.3359375,20568.068359375,-341.65399169921875,10580.5537109375,17376.517578125,-23557.771484375,44787.85546875,-400000.0625,20673.39453125,10838.8740234375,-30834.314453125,5422.09619140625,-16522.6640625,36906.19140625,16047.693359375,27361.1875,-23112.3359375,-4033.5810546875,35461.9140625,-400000.0625,11470.0048828125,37272.484375,-25419.1171875,15587.7958984375,2514.555908203125,11180.431466365
-31046.857421875,14216.7939453125,23123.8359375,1647.89794921875,26945.68359375,-6380.369140625,-58414.37109375,-52902.96875,20536.5,-409.5679931640625,10559.7158203125,17344.4140625,-23533.64453125,44794.51953125,-400000.0625,20653.125,10907.1806640625,-30853.9140625,5415.9541015625,-16553.2421875,36888.8125,16034.4833984375,27402.232421875,-23126.48828125,-4075.64501953125,35440.76171875,-400000.0625,11446.6103515625,37263.40234375,-25470.2109375,15592.3408203125,2462.419921875,11180.433466365
-31072.6875,14194.04296875,23085.712890625,1629.8470458984375,26915.265625,-6416.48193359375,-58440.19921875,-52932.4375,20512.27734375,-454.5929870605469,10537.279296875,17338.572265625,-23495.068359375,44818.33984375,-400000.0625,20640.107421875,10964.5546875,-30867.31640625,5436.72705078125,-16584.404296875,36874.33203125,16036.0390625,27437.953125,-23113.50390625,-4114.9228515625,35421.39453125,-400000.0625,11429.83984375,37270.2265625,-25514.7421875,15614.3466796875,2417.56396484375,11180.435466365
-31054.603515625,14206.2119140625,23143.13671875,1634.8740234375,26939.263671875,-6382.80419921875,-58422.80078125,-52910.81640625,20542.068359375,-388.0589904785156,10551.1171875,17393.13671875,-23481.53515625,44844.46484375,-400000.0625,20665.80859375,10914.669921875,-30841.79296875,5481.9931640625,-16562.26171875,36892.86328125,16067.744140625,27415.544921875,-23065.998046875,-4082.424072265625,35442.1640625,-400000.0625,11457.537109375,37302.8671875,-25474.767578125,15639.2880859375,2457.699951171875,11180.437466365
-31035.73046875,14221.0908203125,23193.947265625,1643.1300048828125,26966.64453125,-6347.81591796875,-58403.2421875,-52885.70703125,20569.236328125,-327.3299865722656,10567.3642578125,17419.263671875,-23522.1484375,44827.58203125,-400000.0625,20681.421875,10821.345703125,-30824.28515625,5478.32080078125,-16537.109375,36905.48046875,16074.404296875,27360.197265625,-23062.615234375,-4044.799072265625,35459.4375,-400000.0625,11477.9140625,37306.94140625,-25430.126953125,15625.365234375,2503.12109375,11180.439466365
-31024.974609375,14231.671875,23208.8125,1653.9439697265625,26981.564453125,-6329.580078125,-58390.984375,-52870.54296875,20580.73828125,-307.4859924316406,10579.9228515625,17413.41796875,-23559.103515625,44802.22265625,-400000.0625,20683.05859375,10782.44140625,-30819.0859375,5450.7099609375,-16521.7421875,36909.8046875,16066.3603515625,27332.544921875,-23083.380859375,-4024.27392578125,35468.12109375,-400000.0625,11485.654296875,37292.6171875,-25409.537109375,15601.8896484375,2524.97705078125,11180.441466365
-31035.40234375,14226.521484375,23172.869140625,1653.97900390625,26968.70703125,-6348.39794921875,-58399.4453125,-52882.6484375,20563.890625,-349.7090148925781,10573.6005859375,17380.12109375,-23567.123046875,44787.3984375,-400000.0625,20668.373046875,10823.59765625,-30833.248046875,5422.14990234375,-16534.53125,36898.74609375,16048.3701171875,27352.912109375,-23111.4453125,-4044.5810546875,35456.234375,-400000.0625,11470.439453125,37273.765625,-25434.76953125,15586.1650390625,2501.22998046875,11180.443466364999
-31043.41015625,14221.599609375,23152.6015625,1652.8909912109375,26958.697265625,-6363.7919921875,-58406.82421875,-52892.07421875,20554.033203125,-373.5989990234375,10568.681640625,17375.669921875,-23539.43359375,44801.94921875,-400000.0625,20666.052734375,10883.6142578125,-30837.05078125,5430.43115234375,-16544.736328125,36896.08203125,16051.46875,27387.796875,-23104.36328125,-4060.303955078125,35449.37890625,-400000.0625,11464.783203125,37277.7109375,-25454.109375,15599.3798828125,2482.623046875,11180.445466365
-31034.47265625,14224.8662109375,23186.224609375,1651.52099609375,26970.169921875,-6345.36279296875,-58398.82421875,-52881.50390625,20567.794921875,-332.8210144042969,10572.7880859375,17400.91015625,-23540.142578125,44808.71875,-400000.0625,20674.845703125,10851.265625,-30827.326171875,5447.7841796875,-16533.345703125,36900.171875,16061.0810546875,27368.552734375,-23081.009765625,-4040.427978515625,35457.6171875,-400000.0625,11476.544921875,37288.80859375,-25427.794921875,15607.0458984375,2507.73388671875,11180.447466365
-31023.720703125,14233.275390625,23206.12109375,1656.5269775390625,26983.671875,-6328.041015625,-58388.1484375,-52868.0703125,20579.013671875,-307.97100830078125,10582.08203125,17403.306640625,-23567.0703125,44794.34375,-400000.0625,20678.6875,10805.7724609375,-30820.486328125,5436.21923828125,-16520.767578125,36903.1796875,16059.0302734375,27341.798828125,-23087.4453125,-4021.5380859375,35464.5234375,-400000.0625,11486.056640625,37283.8671875,-25405.09765625,15597.29296875,2529.35791015625,11180.449466365
-31032.25390625,14228.912109375,23176.263671875,1654.376953125,26973.609375,-6343.4658203125,-58395.43359375,-52877.55078125,20565.716796875,-342.42498779296875,10576.0732421875,17377.9453125,-23575.150390625,44783.5859375,-400000.0625,20667.17578125,10830.4013671875,-30830.0078125,5416.93603515625,-16532.349609375,36894.19140625,16045.322265625,27356.00390625,-23111.3828125,-4037.412109375,35454.84765625,-400000.0625,11475.443359375,37270.078125,-25425.048828125,15587.9755859375,2508.9951171875,11180.451466364999
-31053.04296875,14215.5400390625,23122.158203125,1648.5469970703125,26947.16015625,-6380.64990234375,-58414.43359375,-52902.47265625,20538.140625,-405.47198486328125,10560.3662109375,17348.90625,-23551.650390625,44791.6484375,-400000.0625,20653.404296875,10900.1962890625,-30845.37890625,5414.68115234375,-16558.70703125,36882.00390625,16036.1005859375,27397.966796875,-23123.328125,-4075.448974609375,35437.3828125,-400000.0625,11457.0244140625,37263.30078125,-25471.900390625,15595.8388671875,2462.72509765625,11180.453466365
-31068.12109375,14203.841796875,23091.41015625,1641.448974609375,26926.146484375,-6408.02392578125,-58431.87109375,-52924.08984375,20521.66015625,-441.635986328125,10546.33984375,17348.794921875,-23503.021484375,44820.89453125,-400000.0625,20651.150390625,10962.02734375,-30850.787109375,5442.4599609375,-16579.00390625,36877.03125,16044.6982421875,27438.60546875,-23104.453125,-4105.02490234375,35426.51953125,-400000.0625,11446.693359375,37277.81640625,-25506.67578125,15623.064453125,2427.156982421875,11180.455466365
-31054.318359375,14210.095703125,23142.876953125,1642.9849853515625,26943.615234375,-6380.6708984375,-58419.82421875,-52907.578125,20546.6484375,-380.1510009765625,10555.68359375,17393.705078125,-23492.828125,44840.796875,-400000.0625,20670.1640625,10907.841796875,-30831.953125,5479.06982421875,-16561.48046875,36891.5625,16070.4296875,27410.998046875,-23063.228515625,-4079.200927734375,35442.1875,-400000.0625,11467.197265625,37305.11328125,-25471.986328125,15639.55078125,2462.507080078125,11180.457466365
-31035.806640625,14222.6689453125,23192.494140625,1649.760986328125,26969.03125,-6345.1748046875,-58401.8046875,-52883.828125,20572.431640625,-319.7590026855469,10571.080078125,17416.62890625,-23533.666015625,44821.953125,-400000.0625,20681.84375,10811.7216796875,-30818.41796875,5470.14404296875,-16537.96875,36902.87890625,16074.21484375,27353.830078125,-23061.96484375,-4042.822021484375,35459.20703125,-400000.0625,11484.13671875,37306.22265625,-25428.80078125,15621.7900390625,2506.322021484375,11180.459466365
-31026.23046875,14230.5791015625,23206.115234375,1656.1309814453125,26982.69921875,-6330.5087890625,-58391.875,-52871.07421875,20581.35546875,-301.57501220703125,10579.7841796875,17408.513671875,-23570.8046875,44793.26953125,-400000.0625,20679.2265625,10773.318359375,-30817.5546875,5437.9951171875,-16525.5234375,36904.37890625,16062.0615234375,27324.248046875,-23086.640625,-4025.931884765625,35464.37890625,-400000.0625,11488.2666015625,37291.609375,-25410.609375,15596.935546875,2524.72412109375,11180.461466364999
-31035.39453125,14226.4560546875,23170.39453125,1655.1929931640625,26969.392578125,-6350.44482421875,-58400.09375,-52883.375,20564.1640625,-343.635009765625,10573.4814453125,17375.564453125,-23574.89453125,44777.5625,-400000.0625,20664.568359375,10814.7001953125,-30832.22265625,5411.5771484375,-16537.9453125,36892.94921875,16043.1708984375,27344.568359375,-23115.85546875,-4045.458984375,35452.7890625,-400000.0625,11473.2470703125,37270.88671875,-25434.8046875,15583.1953125,2501.27001953125,11180.463466365
-31045.73046875,14218.4169921875,23147.380859375,1650.52294921875,26955.859375,-6367.4921875,-58409.50390625,-52896.140625,20550.556640625,-370.4949951171875,10565.0546875,17365.162109375,-23543.603515625,44790.16015625,-400000.0625,20659.84375,10872.9091796875,-30839.1953125,5419.701171875,-16550.96484375,36886.12890625,16043.53515625,27380.802734375,-23113.876953125,-4063.48388671875,35443.984375,-400000.0625,11462.298828125,37271.92578125,-25457.677734375,15594.8837890625,2479.180908203125,11180.465466365
-31031.51171875,14227.3291015625,23186.33203125,1655.2640380859375,26974.45703125,-6343.13623046875,-58396.31640625,-52879.00390625,20569.927734375,-323.7650146484375,10575.0341796875,17395.78125,-23534.0078125,44805.7265625,-400000.0625,20674.970703125,10848.115234375,-30823.9765625,5446.755859375,-16534.966796875,36898.30859375,16059.8369140625,27369.634765625,-23085.154296875,-4038.5390625,35457.21875,-400000.0625,11478.4169921875,37290.9609375,-25424.998046875,15607.8779296875,2510.302978515625,11180.467466365
-31023.111328125,14232.0712890625,23204.078125,1656.6109619140625,26984.091796875,-6328.8271484375,-58390.2109375,-52870.0390625,20575.62109375,-304.7569885253906,10580.2958984375,17396.8828125,-23558.826171875,44791.79296875,-400000.0625,20679.283203125,10805.93359375,-30820.599609375,5439.10693359375,-16526.04296875,36899.42578125,16056.353515625,27344.0546875,-23090.80859375,-4023.991943359375,35461.64453125,-400000.0625,11482.259765625,37285.88671875,-25407.142578125,15597.2626953125,2528.219970703125,11180.469466364999
-31028.0078125,14229.744140625,23178.6171875,1657.748046875,26975.166015625,-6343.2939453125,-58394.796875,-52878.60546875,20563.748046875,-337.6409912109375,10576.962890625,17375.201171875,-23562.279296875,44784.265625,-400000.0625,20672.3125,10837.345703125,-30828.30859375,5425.10009765625,-16533.2109375,36892.578125,16047.4775390625,27361.876953125,-23108.1953125,-4037.531005859375,35456.43359375,-400000.0625,11473.669921875,37275.828125,-25425.2734375,15590.921875,2511.033935546875,11180.471466365
-31047.943359375,14215.95703125,23124.58203125,1650.7159423828125,26948.822265625,-6381.31103515625,-58414.140625,-52903.71484375,20537.544921875,-402.4150085449219,10559.318359375,17345.65625,-23537.66796875,44793.6953125,-400000.0625,20655.861328125,10908.3193359375,-30844.19140625,5423.162109375,-16560.306640625,36879.69140625,16038.818359375,27404.6953125,-23120.71875,-4076.8701171875,35439.06640625,-400000.0625,11454.5966796875,37269.7265625,-25472.353515625,15597.181640625,2462.833984375,11180.473466365
-31061.41015625,14206.7138671875,23096.099609375,1645.9219970703125,26929.2578125,-6406.57177734375,-58428.55078125,-52921.26953125,20522.369140625,-437.6340026855469,10549.4697265625,17349.658203125,-23491.607421875,44827.3046875,-400000.0625,20656.197265625,10973.12109375,-30846.23828125,5453.7451171875,-16579.837890625,36878.703125,16049.48828125,27450.369140625,-23100.080078125,-4103.89697265625,35432.46875,-400000.0625,11448.4228515625,37287.875,-25503.697265625,15626.396484375,2429.85791015625,11180.475466365
-31043.70703125,14218.095703125,23152.51171875,1652.7540283203125,26952.1484375,-6373.126953125,-58410.83984375,-52899.71875,20551.88671875,-374.739013671875,10564.37109375,17402.5859375,-23480.4921875,44851.6640625,-400000.0625,20679.576171875,10916.4775390625,-30821.13671875,5492.17822265625,-16557.8359375,36897.6640625,16078.07421875,27425.564453125,-23059.306640625,-4071.527099609375,35453.390625,-400000.0625,11474.345703125,37320.62109375,-25463.283203125,15647.7529296875,2468.989990234375,11180.477466365
-31025.10546875,14231.5947265625,23204.19140625,1660.1240234375,26979.05859375,-6337.60888671875,-58392.7578125,-52875.68359375,20577.693359375,-315.31500244140625,10580.568359375,17424.498046875,-23522.408203125,44832.12109375,-400000.0625,20691.81640625,10814.091796875,-30807.32421875,5481.44921875,-16532.85546875,36908.3359375,16081.9609375,27366.423828125,-23061.216796875,-4034.326904296875,35469.56640625,-400000.0625,11492.330078125,37321.7890625,-25419.11328125,15628.25,2515.2080078125,11180.479466365
-31017.9375,14238.560546875,23216.328125,1664.5450439453125,26989.82421875,-6324.43408203125,-58384.2734375,-52865.171875,20584.123046875,-299.9209899902344,10588.208984375,17413.44921875,-23564.15625,44801.03125,-400000.0625,20689.033203125,10772.119140625,-30808.265625,5447.71484375,-16522.482421875,36907.6796875,16068.921875,27337.046875,-23085.220703125,-4019.162109375,35473.03515625,-400000.0625,11494.154296875,37302.26171875,-25403.357421875,15597.556640625,2532.842041015625,11180.481466365
-31025.47265625,14236.3662109375,23182.53515625,1664.948974609375,26979.267578125,-6342.5419921875,-58389.2421875,-52873.79296875,20571.03515625,-340.41900634765625,10583.6533203125,17383.80859375,-23567.94140625,44787.84765625,-400000.0625,20676.306640625,10820.2841796875,-30820.650390625,5422.7001953125,-16532.525390625,36900.48046875,16053.21484375,27360.76171875,-23109.19921875,-4036.10791015625,35463.9921875,-400000.0625,11481.521484375,37284.1484375,-25426.015625,15585.646484375,2511.3349609375,11180.483466365
-31041.443359375,14225.66015625,23153.9609375,1656.72900390625,26960.65234375,-6363.23681640625,-58404.02734375,-52891.0703125,20553.59375,-372.9460144042969,10571.0986328125,17371.623046875,-23544.8515625,44797.1640625,-400000.0625,20665.544921875,10879.4833984375,-30832.740234375,5429.384765625,-16550.29296875,36890.44140625,16049.73046875,27394.234375,-23113.060546875,-4058.922119140625,35453.08984375,-400000.0625,11467.36328125,37280.13671875,-25451.892578125,15594.1845703125,2482.926025390625,11180.485466365
-31031.08203125,14228.537109375,23188.990234375,1656.1259765625,26973.560546875,-6343.2138671875,-58396.4921875,-52879.54296875,20569.16796875,-332.4100036621094,10577.09765625,17400.046875,-23534.21875,44810.65234375,-400000.0625,20676.80078125,10859.1357421875,-30821.4453125,5455.71484375,-16537.818359375,36898.9140625,16065.228515625,27383.189453125,-23086.396484375,-4038.080078125,35462.74609375,-400000.0625,11479.15234375,37296.9375,-25425.03125,15609.275390625,2508.73193359375,11180.487466364999
-31021.06640625,14234.7080078125,23209.826171875,1659.68798828125,26985.853515625,-6328.07177734375,-58388.71484375,-52868.28515625,20578.529296875,-308.2149963378906,10584.275390625,17404.619140625,-23554.6328125,44800.984375,-400000.0625,20680.9609375,10813.4638671875,-30817.9140625,5447.6220703125,-16527.88671875,36902.4140625,16062.9501953125,27357.2578125,-23086.51953125,-4022.06201171875,35468.328125,-400000.0625,11485.41796875,37294.51171875,-25404.919921875,15598.75390625,2530.0380859375,11180.489466365
-31025.677734375,14234.421875,23186.85546875,1661.8480224609375,26978.611328125,-6340.248046875,-58391.859375,-52874.8046875,20567.751953125,-338.6610107421875,10581.658203125,17385.03125,-23556.927734375,44795.43359375,-400000.0625,20673.927734375,10841.431640625,-30825.0546875,5433.39501953125,-16534.27734375,36897.29296875,16053.8203125,27375.0,-23102.080078125,-4034.7900390625,35463.6328125,-400000.0625,11477.544921875,37285.265625,-25420.451171875,15592.1591796875,2514.39892578125,11180.491466365
-31036.876953125,14229.931640625,23142.560546875,1665.68701171875,26961.53515625,-6368.208984375,-58401.19140625,-52888.91015625,20548.078125,-393.5409851074219,10575.484375,17365.9453125,-23522.533203125,44812.91015625,-400000.0625,20667.626953125,10921.46484375,-30830.994140625,5437.30810546875,-16551.142578125,36892.90234375,16052.7763671875,27424.107421875,-23104.71484375,-4063.820068359375,35455.78515625,-400000.0625,11466.4736328125,37286.9296875,-25457.71875,15609.48046875,2478.14208984375,11180.493466365
-31056.466796875,14214.1142578125,23107.16015625,1654.241943359375,26937.22265625,-6399.49609375,-58421.5390625,-52913.41015625,20527.49609375,-435.968994140625,10558.4736328125,17363.435546875,-23477.978515625,44839.99609375,-400000.0625,20661.935546875,10982.3046875,-30839.783203125,5458.9619140625,-16576.78515625,36884.359375,16057.310546875,27461.49609375,-23087.13671875,-4096.4501953125,35442.17578125,-400000.0625,11452.783203125,37296.80859375,-25495.587890625,15632.8046875,2437.31005859375,11180.495466365
-31042.158203125,14222.0322265625,23159.224609375,1655.884033203125,26956.30078125,-6370.07421875,-58409.1953125,-52896.82421875,20552.068359375,-376.1470031738281,10568.3974609375,17412.9609375,-23465.30078125,44862.89453125,-400000.0625,20685.177734375,10931.8896484375,-30819.78125,5498.22021484375,-16560.2265625,36899.75390625,16083.1318359375,27436.72265625,-23043.470703125,-4069.7060546875,35459.2890625,-400000.0625,11474.09765625,37326.44140625,-25460.931640625,15652.4892578125,2472.759033203125,11180.497466365
-31025.33984375,14233.0048828125,23208.271484375,1661.3380126953125,26979.416015625,-6338.048828125,-58392.82421875,-52875.390625,20575.259765625,-317.885009765625,10582.4541015625,17434.55078125,-23505.55859375,44843.30859375,-400000.0625,20697.30078125,10836.45703125,-30808.982421875,5489.4921875,-16536.115234375,36909.375,16085.38671875,27378.45703125,-23039.7109375,-4035.06396484375,35473.3359375,-400000.0625,11490.27734375,37327.9375,-25419.17578125,15635.103515625,2514.76611328125,11180.499466365
-31015.89453125,14241.0009765625,23223.98828125,1668.52099609375,26992.814453125,-6322.31494140625,-58381.48046875,-52861.93359375,20584.255859375,-300.2080078125,10591.1748046875,17427.455078125,-23541.650390625,44817.09765625,-400000.0625,20698.6875,10800.4267578125,-30807.662109375,5460.7158203125,-16522.560546875,36911.26171875,16074.859375,27350.130859375,-23059.814453125,-4017.39697265625,35479.71875,-400000.0625,11494.1826171875,37313.11328125,-25400.22265625,15611.27734375,2535.52099609375,11180.501466365
-31024.611328125,14238.5009765625,23191.408203125,1669.550048828125,26981.228515625,-6338.5458984375,-58387.57421875,-52870.4453125,20568.1328125,-338.7330017089844,10586.90234375,17395.185546875,-23548.72265625,44800.40234375,-400000.0625,20688.01171875,10837.1708984375,-30820.673828125,5432.48095703125,-16533.91015625,36902.19921875,16055.9462890625,27366.73046875,-23090.65234375,-4033.81201171875,35470.64453125,-400000.0625,11481.8330078125,37294.1015625,-25422.923828125,15596.166015625,2513.673095703125,11180.503466365
-31044.953125,14222.630859375,23157.69140625,1657.301025390625,26960.28515625,-6365.55322265625,-58406.2265625,-52892.5,20545.328125,-375.4830017089844,10570.3154296875,17375.716796875,-23528.470703125,44803.64453125,-400000.0625,20672.455078125,10890.4658203125,-30836.693359375,5428.8671875,-16555.697265625,36886.31640625,16044.4814453125,27391.4453125,-23098.54296875,-4060.556884765625,35452.34375,-400000.0625,11463.5654296875,37285.1875,-25453.853515625,15599.0009765625,2483.055908203125,11180.505466364999
-31032.66796875,14228.9130859375,23195.296875,1660.0989990234375,26976.34375,-6343.27978515625,-58395.296875,-52878.69140625,20561.66796875,-331.406005859375,10579.119140625,17403.990234375,-23518.591796875,44817.91796875,-400000.0625,20686.41015625,10868.7158203125,-30823.70703125,5454.8232421875,-16539.646484375,36894.5390625,16058.6279296875,27379.64453125,-23072.3671875,-4038.306884765625,35463.6015625,-400000.0625,11478.6083984375,37301.30078125,-25425.154296875,15612.5908203125,2512.113037109375,11180.507466365
-31018.3671875,14242.455078125,23220.708984375,1670.208984375,26994.798828125,-6322.6630859375,-58380.27734375,-52861.66015625,20575.771484375,-302.8299865722656,10592.009765625,17410.41015625,-23541.0546875,44808.91015625,-400000.0625,20695.32421875,10823.671875,-30814.337890625,5451.7998046875,-16522.69140625,36903.43359375,16060.103515625,27354.341796875,-23075.546875,-4015.18603515625,35474.640625,-400000.0625,11491.0693359375,37301.6484375,-25397.3203125,15605.19140625,2538.10595703125,11180.509466365
-31023.740234375,14240.330078125,23192.955078125,1670.5009765625,26985.099609375,-6337.43603515625,-58385.8828125,-52869.421875,20563.447265625,-336.343994140625,10587.34375,17385.283203125,-23547.34375,44797.28515625,-400000.0625,20685.396484375,10849.1845703125,-30823.27734375,5434.783203125,-16532.669921875,36896.55859375,16046.73828125,27366.53125,-23100.080078125,-4029.951904296875,35467.40234375,-400000.0625,11480.3876953125,37288.41796875,-25415.0703125,15597.04296875,2520.260986328125,11180.511466365
-31044.52734375,14226.4716796875,23140.24609375,1664.02197265625,26957.466796875,-6374.880859375,-58404.23046875,-52894.0625,20535.72265625,-401.2430114746094,10571.71484375,17355.07421875,-23521.439453125,44806.3359375,-400000.0625,20670.9765625,10921.26171875,-30839.4375,5433.34521484375,-16559.634765625,36883.6640625,16036.578125,27409.453125,-23112.986328125,-4069.260009765625,35449.953125,-400000.0625,11460.248046875,37281.89453125,-25462.58203125,15604.669921875,2473.862060546875,11180.513466365
-31063.265625,14212.17578125,23106.708984375,1653.8370361328125,26934.48828125,-6404.0029296875,-58421.4453125,-52916.10546875,20516.806640625,-440.94500732421875,10557.0390625,17351.9375,-23480.34375,44835.0390625,-400000.0625,20668.3125,10984.4560546875,-30847.705078125,5460.3681640625,-16582.693359375,36877.06640625,16042.2314453125,27450.263671875,-23097.611328125,-4099.51318359375,35438.390625,-400000.0625,11449.3515625,37295.10546875,-25499.091796875,15630.9814453125,2437.075927734375,11180.515466365
-31046.3828125,14222.7890625,23159.5390625,1659.6920166015625,26957.21875,-6372.19287109375,-58405.70703125,-52895.77734375,20544.66015625,-376.75799560546875,10568.947265625,17402.22265625,-23469.685546875,44858.72265625,-400000.0625,20692.8125,10934.2451171875,-30824.92578125,5503.27294921875,-16559.927734375,36895.51953125,16069.2431640625,27425.734375,-23055.9296875,-4067.4951171875,35458.484375,-400000.0625,11474.0517578125,37325.4765625,-25460.376953125,15652.5087890625,2475.56201171875,11180.517466365
-31026.763671875,14234.830078125,23210.939453125,1668.3370361328125,26983.474609375,-6336.76123046875,-58386.78515625,-52871.19140625,20569.337890625,-316.97698974609375,10585.09375,17425.486328125,-23512.4140625,44840.3203125,-400000.0625,20706.21875,10835.7578125,-30811.119140625,5496.20703125,-16534.322265625,36907.828125,16073.857421875,27366.04296875,-23054.94140625,-4029.89599609375,35474.4375,-400000.0625,11492.3447265625,37327.078125,-25415.5,15636.3203125,2520.22412109375,11180.519466365
-31012.525390625,14248.6552734375,23230.705078125,1680.06005859375,27001.619140625,-6316.60498046875,-58370.37890625,-52853.5234375,20583.16796875,-293.6910095214844,10600.1767578125,17421.216796875,-23548.98828125,44815.515625,-400000.0625,20710.56640625,10797.609375,-30805.2265625,5470.31201171875,-16517.310546875,36914.359375,16065.8310546875,27340.603515625,-23076.732421875,-4008.466064453125,35483.3984375,-400000.0625,11502.0341796875,37315.58984375,-25391.376953125,15614.1572265625,2545.876953125,11180.521466365
-31020.53515625,14247.123046875,23197.0234375,1681.3909912109375,26991.658203125,-6333.2587890625,-58376.734375,-52862.2109375,20568.099609375,-334.8500061035156,10595.58203125,17387.619140625,-23559.505859375,44797.89453125,-400000.0625,20697.720703125,10831.9384765625,-30818.9921875,5442.51220703125,-16528.248046875,36904.5234375,16047.3271484375,27356.78515625,-23108.517578125,-4025.25390625,35474.0,-400000.0625,11489.7080078125,37294.52734375,-25414.23046875,15599.8212890625,2524.7958984375,11180.523466364999
-31038.15234375,14233.6826171875,23164.798828125,1669.968994140625,26970.783203125,-6359.10986328125,-58393.76171875,-52882.15625,20547.404296875,-373.80999755859375,10581.291015625,17366.69921875,-23546.349609375,44800.79296875,-400000.0625,20683.515625,10882.5517578125,-30833.7890625,5440.68603515625,-16548.1328125,36890.21484375,16036.56640625,27382.66015625,-23117.328125,-4052.35107421875,35457.6875,-400000.0625,11472.869140625,37285.08984375,-25442.583984375,15600.9501953125,2494.4150390625,11180.525466365
-31030.2890625,14238.0185546875,23197.55078125,1671.06494140625,26983.609375,-6340.14697265625,-58385.109375,-52869.9765625,20560.3203125,-334.8760070800781,10587.400390625,17389.76953125,-23546.216796875,44809.765625,-400000.0625,20693.548828125,10856.4736328125,-30824.740234375,5460.48876953125,-16536.685546875,36895.58984375,16046.1953125,27367.240234375,-23097.365234375,-4031.801025390625,35466.24609375,-400000.0625,11484.125,37297.5625,-25416.11328125,15607.490234375,2520.134033203125,11180.527466365
-31023.02734375,14242.666015625,23217.072265625,1673.4420166015625,26994.927734375,-6324.86083984375,-58378.13671875,-52858.94921875,20567.3046875,-312.3370056152344,10591.34375,17390.44921875,-23574.662109375,44793.49609375,-400000.0625,20695.373046875,10809.587890625,-30821.578125,5448.6611328125,-16526.529296875,36895.92578125,16041.4775390625,27336.677734375,-23105.81640625,-4016.236083984375,35469.09765625,-400000.0625,11488.333984375,37292.65625,-25395.181640625,15593.984375,2539.610107421875,11180.529466365
-31024.78125,14242.9091796875,23193.826171875,1677.8699951171875,26990.9296875,-6335.73486328125,-58379.07421875,-52862.9296875,20558.033203125,-341.01300048828125,10592.30078125,17370.314453125,-23577.548828125,44788.671875,-400000.0625,20689.41796875,10839.896484375,-30826.099609375,5434.13623046875,-16531.580078125,36891.6171875,16032.6484375,27354.80078125,-23120.04296875,-4025.968017578125,35463.8203125,-400000.0625,11481.759765625,37283.7578125,-25410.1796875,15588.453125,2527.012939453125,11180.531466365
-31038.2578125,14237.173828125,23145.830078125,1676.76904296875,26969.89453125,-6368.044921875,-58391.390625,-52881.9921875,20537.611328125,-399.8240051269531,10582.904296875,17344.810546875,-23544.001953125,44801.9296875,-400000.0625,20679.58984375,10911.2880859375,-30838.220703125,5434.26123046875,-16551.724609375,36883.90625,16027.359375,27402.123046875,-23128.529296875,-4057.783935546875,35451.9296875,-400000.0625,11466.703125,37281.3984375,-25449.705078125,15598.916015625,2487.54296875,11180.533466365
-31058.142578125,14221.5654296875,23108.64453125,1665.4110107421875,26943.23828125,-6399.94580078125,-58412.953125,-52906.984375,20517.26953125,-443.8489990234375,10565.33984375,17339.31640625,-23496.4453125,44828.8828125,-400000.0625,20671.8125,10973.560546875,-30850.517578125,5456.64990234375,-16576.869140625,36873.59375,16032.9873046875,27443.796875,-23115.06640625,-4091.669921875,35437.51953125,-400000.0625,11451.55859375,37290.17578125,-25488.7109375,15623.0830078125,2446.443115234375,11180.535466365
-31042.69921875,14229.6904296875,23161.599609375,1670.365966796875,26964.4296875,-6369.63623046875,-58398.984375,-52889.0234375,20544.828125,-381.1449890136719,10575.67578125,17390.96484375,-23477.7734375,44853.87109375,-400000.0625,20694.806640625,10927.1142578125,-30826.666015625,5497.34521484375,-16556.484375,36891.72265625,16061.599609375,27421.931640625,-23071.71484375,-4062.47509765625,35455.42578125,-400000.0625,11474.978515625,37322.14453125,-25451.126953125,15647.646484375,2483.031005859375,11180.537466365
