P7,P4,Cz,Pz,P3,P8,O1,O2,T8,F8,C4,F4,Fp2,Fz,C3,F3,Fp1,T7,F7,Oz,PO3,AF3,FC5,FC1,CP5,CP1,CP2,CP6,AF4,FC2,FC6,PO4,Timestamp

-8881.7861328125,-10933.7939453125,-12349.6591796875,-11668.1201171875,-19850.88671875,-19888.115234375,-19682.83203125,-9180.11328125,-8558.20703125,-8568.654296875,-10724.5458984375,-8905.388671875,-19890.7109375,-19946.20703125,-19563.900390625,-19822.810546875,-7873.27001953125,-13586.822265625,-14728.2490234375,-10064.669921875,-9772.7900390625,-9609.21875,-13034.0732421875,-9833.6142578125,-19832.55078125,-19875.046875,-19666.220703125,-19277.248046875,-11973.18359375,-7803.7080078125,-12216.1396484375,-11092.8251953125,4767.633466365
-8569.525390625,-10573.46875,-12112.7548828125,-11299.8408203125,-19742.73046875,-19696.7734375,-19020.2578125,-8850.7060546875,-8178.51220703125,-8061.9638671875,-10379.5078125,-8565.6630859375,-19782.80859375,-19773.375,-18947.904296875,-19380.029296875,-7767.1318359375,-13362.892578125,-14822.630859375,-9701.921875,-9405.7021484375,-9269.296875,-12689.935546875,-9549.177734375,-19722.0625,-19331.73828125,-19074.232421875,-18666.1953125,-11731.341796875,-7651.740234375,-11984.6318359375,-10738.0654296875,4767.635466365
-9265.654296875,-11280.1708984375,-12829.21875,-12007.140625,-19945.9921875,-19927.849609375,-19644.646484375,-9566.404296875,-8861.49609375,-8718.4853515625,-11088.9482421875,-9275.0673828125,-19986.017578125,-20018.23046875,-19620.814453125,-19865.783203125,-8517.353515625,-14069.9033203125,-15572.921875,-10405.1533203125,-10099.755859375,-9963.9599609375,-13396.8251953125,-10264.31640625,-19927.2890625,-19835.859375,-19657.005859375,-19440.26953125,-12463.623046875,-8392.326171875,-12719.337890625,-11444.5126953125,4767.637466364999
-10032.8349609375,-12093.9677734375,-13527.58203125,-12829.537109375,-20183.228515625,-20225.44921875,-20271.091796875,-10361.697265625,-9685.8974609375,-9645.2431640625,-11888.59765625,-10064.2890625,-20222.552734375,-20282.0234375,-20216.89453125,-20265.140625,-9108.5107421875,-14750.2509765625,-15971.376953125,-11220.771484375,-10919.75,-10751.123046875,-14197.63671875,-11006.75,-20165.447265625,-20341.001953125,-20214.099609375,-20239.283203125,-13177.490234375,-9020.9638671875,-13424.955078125,-12254.8447265625,4767.639466365
-9860.2431640625,-11943.1123046875,-13314.400390625,-12682.40625,-20141.12109375,-20163.349609375,-20039.390625,-10193.8115234375,-9554.439453125,-9586.78125,-11728.607421875,-9897.369140625,-20180.732421875,-20225.875,-19969.822265625,-20118.44140625,-8811.83984375,-14532.2451171875,-15564.099609375,-11071.2080078125,-10776.97265625,-10594.314453125,-14039.32421875,-10812.9111328125,-20122.392578125,-20169.38671875,-20005.498046875,-19929.3515625,-12957.4599609375,-8750.357421875,-13196.625,-12101.111328125,4767.641466364999
-9200.611328125,-11269.4384765625,-12674.2412109375,-12005.5966796875,-19946.716796875,-19947.884765625,-19639.61328125,-9517.0771484375,-8890.4453125,-8911.919921875,-11058.05859375,-9228.4541015625,-19986.29296875,-20017.595703125,-19563.388671875,-19827.69921875,-8165.18017578125,-13893.3486328125,-14956.0322265625,-10396.791015625,-10106.2158203125,-9932.4658203125,-13367.8359375,-10153.2548828125,-19927.41015625,-19841.662109375,-19640.06640625,-19366.111328125,-12294.7333984375,-8105.05322265625,-12532.3994140625,-11427.6845703125,4767.643466365
-8591.2275390625,-10623.375,-12132.451171875,-11351.6650390625,-19758.662109375,-19747.158203125,-19348.765625,-8888.173828125,-8234.138671875,-8171.6279296875,-10424.3603515625,-8601.23046875,-19798.22265625,-19821.677734375,-19275.802734375,-19593.06640625,-7699.80322265625,-13353.6572265625,-14646.2861328125,-9747.8818359375,-9454.9150390625,-9306.9697265625,-12730.8134765625,-9566.9462890625,-19739.5625,-19584.349609375,-19367.6640625,-19010.4609375,-11733.51171875,-7610.94384765625,-11973.76171875,-10783.2255859375,4767.645466365
-9019.265625,-11062.1357421875,-12579.408203125,-11792.0673828125,-19884.669921875,-19873.498046875,-19511.826171875,-9336.3564453125,-8654.16015625,-8584.9697265625,-10865.505859375,-9042.0185546875,-19924.654296875,-19948.892578125,-19450.9921875,-19739.10546875,-8163.82177734375,-13794.7001953125,-15116.2353515625,-10185.529296875,-9883.03515625,-9741.201171875,-13173.490234375,-10012.84375,-19865.95703125,-19730.701171875,-19527.15625,-19231.625,-12189.66796875,-8071.548828125,-12429.6123046875,-11222.7451171875,4767.647466365
-9607.7529296875,-11686.4814453125,-13096.6513671875,-12423.4072265625,-20066.427734375,-20067.53125,-19855.04296875,-9946.310546875,-9288.73046875,-9309.4697265625,-11477.55859375,-9645.140625,-20106.44140625,-20140.546875,-19810.13671875,-19999.08984375,-8602.353515625,-14308.1337890625,-15393.015625,-10812.7998046875,-10513.896484375,-10346.638671875,-13784.78515625,-10577.61328125,-20047.40234375,-20013.14453125,-19844.416015625,-19731.955078125,-12726.0654296875,-8539.9169921875,-12962.2607421875,-11844.025390625,4767.649466365
-9471.9521484375,-11556.3935546875,-12918.1181640625,-12294.2880859375,-20030.353515625,-20052.044921875,-20031.8984375,-9806.8828125,-9174.7666015625,-9238.724609375,-11342.0908203125,-9506.365234375,-20070.365234375,-20118.7734375,-19992.904296875,-20067.787109375,-8389.662109375,-14139.6123046875,-15131.416015625,-10686.93359375,-10392.1162109375,-10217.1982421875,-13646.9755859375,-10422.20703125,-20013.162109375,-20117.888671875,-19986.12109375,-20003.294921875,-12551.2041015625,-8339.95703125,-12787.6689453125,-11713.2607421875,4767.651466365
-8871.3134765625,-10921.8994140625,-12338.521484375,-11655.7177734375,-19847.9375,-19884.025390625,-19671.23828125,-9179.2314453125,-8546.162109375,-8555.7421875,-10714.7431640625,-8882.75,-19887.60546875,-19942.123046875,-19551.5859375,-19815.697265625,-7865.40478515625,-13576.875,-14721.1689453125,-10054.03515625,-9762.7353515625,-9599.9033203125,-13021.9296875,-9823.1318359375,-19829.12109375,-19867.615234375,-19656.5703125,-19260.91796875,-11963.19921875,-7795.14306640625,-12204.7822265625,-11082.3984375,4767.653466365
-8567.884765625,-10571.814453125,-12111.8408203125,-11298.701171875,-19742.1953125,-19694.333984375,-19017.47265625,-8854.6181640625,-8177.39501953125,-8059.04296875,-10379.5263671875,-8558.9404296875,-19782.50390625,-19772.248046875,-18944.90625,-19377.904296875,-7767.17822265625,-13362.19921875,-14824.5439453125,-9701.1826171875,-9404.1025390625,-9270.203125,-12687.91015625,-9549.998046875,-19721.767578125,-19327.669921875,-19071.0859375,-18664.314453125,-11730.0244140625,-7651.1318359375,-11984.2919921875,-10737.0400390625,4767.6554663649995
-9273.6435546875,-11287.7275390625,-12836.8369140625,-12015.0029296875,-19947.95703125,-19931.185546875,-19654.064453125,-9577.4912109375,-8870.0693359375,-8728.1943359375,-11097.029296875,-9278.978515625,-19988.220703125,-20021.810546875,-19628.345703125,-19871.783203125,-8523.732421875,-14077.447265625,-15578.71484375,-10413.9072265625,-10106.904296875,-9973.830078125,-13404.619140625,-10272.3203125,-19929.259765625,-19843.099609375,-19664.314453125,-19449.615234375,-12469.603515625,-8399.1572265625,-12727.63671875,-11452.8232421875,4767.657466365
-10030.4677734375,-12091.9296875,-13523.6689453125,-12828.47265625,-20182.630859375,-20225.091796875,-20270.90234375,-10362.44921875,-9685.751953125,-9644.861328125,-11887.3466796875,-10059.5478515625,-20222.578125,-20282.17578125,-20215.705078125,-20263.59375,-9106.0,-14747.7412109375,-15965.505859375,-11218.8642578125,-10917.49609375,-10749.669921875,-14196.150390625,-11005.08203125,-20165.048828125,-20340.46484375,-20212.474609375,-20238.251953125,-13175.4541015625,-9018.56640625,-13422.4814453125,-12252.931640625,4767.659466364999
-9851.2265625,-11932.734375,-13303.3271484375,-12673.8427734375,-20137.970703125,-20160.005859375,-20035.19921875,-10186.748046875,-9544.7109375,-9577.873046875,-11719.2275390625,-9884.392578125,-20178.15625,-20222.58203125,-19965.119140625,-20114.337890625,-8801.7783203125,-14521.8681640625,-15553.2353515625,-11061.7158203125,-10767.4453125,-10584.640625,-14029.5078125,-10801.91796875,-20119.814453125,-20165.36328125,-20000.88671875,-19922.6796875,-12947.9541015625,-8740.7529296875,-13186.6669921875,-12090.2841796875,4767.661466365
-9192.4921875,-11259.939453125,-12666.3369140625,-11997.1982421875,-19943.55078125,-19945.45703125,-19635.4296875,-9512.7451171875,-8880.09375,-8903.2099609375,-11048.537109375,-9214.6572265625,-19983.89453125,-20015.171875,-19558.919921875,-19824.87109375,-8157.68408203125,-13884.400390625,-14949.0302734375,-10387.4716796875,-10098.20703125,-9924.4248046875,-13357.955078125,-10143.29296875,-19925.0,-19838.748046875,-19636.7578125,-19360.765625,-12286.9384765625,-8096.10498046875,-12524.896484375,-11417.6494140625,4767.663466364999
-8588.6279296875,-10621.9912109375,-12131.501953125,-11349.6669921875,-19758.779296875,-19747.080078125,-19347.591796875,-8891.841796875,-8231.4423828125,-8169.23388671875,-10422.181640625,-8595.7607421875,-19798.060546875,-19822.10546875,-19274.5390625,-19592.705078125,-7699.5478515625,-13351.1748046875,-14645.1611328125,-9745.1728515625,-9454.68359375,-9306.00390625,-12727.669921875,-9564.4091796875,-19738.76953125,-19584.599609375,-19367.1484375,-19009.265625,-11731.4287109375,-7609.8359375,-11973.763671875,-10780.9990234375,4767.665466365
-9026.7275390625,-11070.8232421875,-12586.8173828125,-11799.380859375,-19887.458984375,-19876.642578125,-19514.76171875,-9346.359375,-8662.119140625,-8592.5546875,-10873.6484375,-9049.6337890625,-19926.79296875,-19952.271484375,-19454.73828125,-19741.9765625,-8170.85400390625,-13801.7451171875,-15119.6435546875,-10193.1474609375,-9891.0185546875,-9749.2607421875,-13180.6416015625,-10020.296875,-19868.08984375,-19733.6796875,-19529.349609375,-19235.328125,-12196.8798828125,-8078.14990234375,-12437.634765625,-11231.171875,4767.667466365
-9612.271484375,-11691.1611328125,-13099.9697265625,-12427.353515625,-20067.654296875,-20069.515625,-19858.369140625,-9948.5869140625,-9293.119140625,-9315.7685546875,-11482.8525390625,-9651.857421875,-20107.732421875,-20142.306640625,-19813.7265625,-20001.060546875,-8606.4345703125,-14312.40234375,-15394.7607421875,-10817.1845703125,-10517.3359375,-10350.9013671875,-13789.8935546875,-10583.1201171875,-20049.212890625,-20015.9609375,-19846.650390625,-19736.740234375,-12731.72265625,-8543.8447265625,-12966.7197265625,-11849.1943359375,4767.669466365
-9472.8701171875,-11556.8408203125,-12918.625,-12295.94921875,-20030.7109375,-20052.3984375,-20033.908203125,-9801.2109375,-9175.890625,-9240.271484375,-11342.7265625,-9513.2822265625,-20070.73046875,-20119.5078125,-19994.41796875,-20068.9375,-8390.166015625,-14138.98046875,-15131.755859375,-10687.36328125,-10391.662109375,-10216.26171875,-13648.375,-10424.7177734375,-20013.806640625,-20119.517578125,-19987.484375,-20005.830078125,-12553.5009765625,-8340.8466796875,-12788.39453125,-11713.90234375,4767.671466365
-8871.4873046875,-10922.603515625,-12339.64453125,-11657.35546875,-19847.748046875,-19884.669921875,-19669.791015625,-9144.8232421875,-8546.64453125,-8555.58984375,-10713.751953125,-8919.6611328125,-19887.4609375,-19942.673828125,-19548.390625,-19815.11328125,-7866.27197265625,-13576.2265625,-14722.9580078125,-10053.9765625,-9761.6591796875,-9599.470703125,-13021.841796875,-9823.44921875,-19829.21484375,-19867.068359375,-19654.984375,-19257.95703125,-11964.83984375,-7796.0087890625,-12206.275390625,-11082.0078125,4767.6734663649995
-8572.4833984375,-10578.158203125,-12116.4541015625,-11303.392578125,-19743.154296875,-19696.623046875,-19019.060546875,-8841.759765625,-8182.041015625,-8064.01513671875,-10383.966796875,-8580.3447265625,-19783.591796875,-19774.560546875,-18947.984375,-19380.716796875,-7772.81201171875,-13367.2568359375,-14829.8935546875,-9705.134765625,-9408.4189453125,-9273.1103515625,-12693.84765625,-9554.150390625,-19723.619140625,-19330.447265625,-19074.244140625,-18666.7109375,-11736.3212890625,-7656.22900390625,-11989.4873046875,-10741.71484375,4767.675466365
-9281.583984375,-11296.287109375,-12842.5361328125,-12023.978515625,-19950.751953125,-19934.427734375,-19661.38671875,-9582.2353515625,-8877.7998046875,-8738.3037109375,-11106.158203125,-9290.244140625,-19990.28125,-20024.67578125,-19637.4140625,-19877.90234375,-8529.896484375,-14083.4658203125,-15582.0341796875,-10421.365234375,-10116.072265625,-9980.4287109375,-13413.09765625,-10279.9091796875,-19932.271484375,-19849.9296875,-19672.43359375,-19457.1875,-12478.3994140625,-8404.5673828125,-12734.392578125,-11460.5263671875,4767.677466364999
-10030.98828125,-12091.564453125,-13522.41015625,-12829.0859375,-20183.28515625,-20224.8984375,-20269.494140625,-10360.4853515625,-9685.1259765625,-9648.0595703125,-11887.79296875,-10062.2197265625,-20222.181640625,-20281.92578125,-20215.615234375,-20263.669921875,-9101.94140625,-14745.7119140625,-15959.9951171875,-11218.94921875,-10918.578125,-10749.921875,-14194.4677734375,-11003.60546875,-20165.361328125,-20339.37109375,-20212.548828125,-20238.005859375,-13173.052734375,-9015.1943359375,-13421.7939453125,-12252.3798828125,4767.679466365
-9840.3056640625,-11921.0166015625,-13290.431640625,-12661.44140625,-20135.328125,-20157.435546875,-20029.353515625,-10173.046875,-9532.369140625,-9567.9990234375,-11707.0517578125,-9875.484375,-20174.2421875,-20219.2578125,-19960.158203125,-20110.8125,-8786.49609375,-14509.8974609375,-15538.1015625,-11048.19921875,-10756.052734375,-10572.37109375,-14016.3330078125,-10790.0146484375,-20116.517578125,-20160.4765625,-19995.99609375,-19916.57421875,-12933.111328125,-8726.080078125,-13174.3095703125,-12078.267578125,4767.681466364999
-9173.646484375,-11239.888671875,-12645.2431640625,-11976.69140625,-19938.8046875,-19939.0546875,-19628.4375,-9491.1728515625,-8860.62890625,-8883.587890625,-11028.7724609375,-9198.1162109375,-19977.984375,-20009.25,-19552.05078125,-19818.283203125,-8136.98681640625,-13865.8623046875,-14929.591796875,-10367.357421875,-10078.65625,-9904.275390625,-13338.609375,-10123.1787109375,-19918.953125,-19831.95703125,-19629.763671875,-19353.23828125,-12265.6728515625,-8075.912109375,-12503.53515625,-11396.86328125,4767.683466365
-8579.5234375,-10610.9423828125,-12120.439453125,-11339.6484375,-19755.9765625,-19743.8828125,-19344.8125,-8880.6826171875,-8221.3916015625,-8159.60498046875,-10411.50390625,-8586.1318359375,-19795.373046875,-19818.927734375,-19271.58203125,-19589.787109375,-7688.13818359375,-13341.6806640625,-14635.501953125,-9735.0146484375,-9444.0322265625,-9295.869140625,-12718.576171875,-9554.75390625,-19735.908203125,-19581.05859375,-19363.6796875,-19006.17578125,-11721.0126953125,-7600.4130859375,-11961.6650390625,-10770.412109375,4767.685466365
-9033.89453125,-11077.439453125,-12590.939453125,-11806.1982421875,-19889.341796875,-19878.177734375,-19518.640625,-9354.3076171875,-8668.91796875,-8602.357421875,-10878.896484375,-9055.673828125,-19929.1953125,-19954.076171875,-19457.427734375,-19744.22265625,-8174.14794921875,-13806.611328125,-15121.0693359375,-10200.220703125,-9897.6123046875,-9756.4306640625,-13188.2421875,-10026.80078125,-19869.990234375,-19736.255859375,-19531.66015625,-19239.306640625,-12202.5654296875,-8083.31396484375,-12441.2548828125,-11237.158203125,4767.687466365
-9618.0771484375,-11697.1298828125,-13103.1826171875,-12432.341796875,-20069.0390625,-20070.31640625,-19861.5390625,-9956.7119140625,-9299.0986328125,-9321.9462890625,-11487.03515625,-9655.8642578125,-20108.6171875,-20144.294921875,-19816.423828125,-20003.091796875,-8607.7548828125,-14316.5224609375,-15395.4013671875,-10823.5361328125,-10522.734375,-10356.578125,-13795.19140625,-10586.580078125,-20050.970703125,-20018.80078125,-19849.76171875,-19741.318359375,-12734.4140625,-8547.6435546875,-12969.2392578125,-11854.2109375,4767.689466365
-9468.1318359375,-11550.2158203125,-12912.6220703125,-12288.77734375,-20029.1640625,-20051.0078125,-20032.91796875,-9799.7236328125,-9170.6025390625,-9233.005859375,-11335.5419921875,-9500.8681640625,-20068.44140625,-20118.09375,-19992.75390625,-20067.19140625,-8383.55859375,-14134.2626953125,-15127.73828125,-10681.138671875,-10385.345703125,-10211.1806640625,-13641.69140625,-10417.029296875,-20011.84765625,-20118.8671875,-19986.216796875,-20001.28515625,-12546.19921875,-8334.9931640625,-12781.341796875,-11707.626953125,4767.6914663649995
-8857.8837890625,-10907.201171875,-12325.267578125,-11640.955078125,-19843.375,-19878.845703125,-19654.599609375,-9166.0751953125,-8530.0927734375,-8538.328125,-10698.314453125,-8867.5576171875,-19882.494140625,-19936.939453125,-19533.45703125,-19803.31640625,-7853.02587890625,-13563.35546875,-14713.2880859375,-10038.3115234375,-9746.09765625,-9584.4482421875,-13006.90625,-9808.37890625,-19824.5625,-19854.978515625,-19640.3046875,-19239.244140625,-11949.142578125,-7783.126953125,-12192.0673828125,-11066.2451171875,4767.693466365
-8562.4404296875,-10566.2626953125,-12106.1357421875,-11290.681640625,-19740.40625,-19686.453125,-19005.380859375,-8852.587890625,-8169.59521484375,-8050.06201171875,-10371.783203125,-8549.89453125,-19779.98046875,-19763.712890625,-18936.50390625,-19367.40625,-7763.4267578125,-13356.185546875,-14822.7412109375,-9694.40625,-9397.0302734375,-9262.0595703125,-12681.5419921875,-9543.427734375,-19720.45703125,-19317.09375,-19061.03515625,-18656.51953125,-11724.58984375,-7647.416015625,-11978.8134765625,-10730.7783203125,4767.695466364999
-9275.3642578125,-11290.630859375,-12836.6435546875,-12017.7001953125,-19949.18359375,-19930.90625,-19659.201171875,-9584.552734375,-8872.689453125,-8731.7568359375,-11099.703125,-9278.4296875,-19989.19921875,-20021.09765625,-19634.8125,-19875.783203125,-8523.791015625,-14076.4765625,-15574.7099609375,-10417.1943359375,-10110.857421875,-9975.26171875,-13407.5546875,-10273.1826171875,-19930.265625,-19849.25390625,-19670.55859375,-19455.78515625,-12470.7373046875,-8399.2900390625,-12727.4736328125,-11455.0029296875,4767.697466365
-10011.3720703125,-12073.041015625,-13502.7783203125,-12809.6826171875,-20178.025390625,-20219.689453125,-20262.484375,-10344.59765625,-9666.59765625,-9628.861328125,-11867.8173828125,-10038.9814453125,-20216.6484375,-20275.8359375,-20208.353515625,-20257.55078125,-9082.232421875,-14725.8798828125,-15938.2998046875,-11201.0751953125,-10900.189453125,-10730.939453125,-14175.3798828125,-10984.572265625,-20159.734375,-20333.728515625,-20205.640625,-20229.76953125,-13152.8505859375,-8996.494140625,-13399.6728515625,-12234.1796875,4767.699466364999
-9809.25390625,-11890.1318359375,-13260.3349609375,-12631.8984375,-20125.912109375,-20147.736328125,-20018.642578125,-10145.7333984375,-9503.27734375,-9538.251953125,-11677.2109375,-9841.9365234375,-20165.8359375,-20210.30078125,-19949.0390625,-20100.873046875,-8756.6318359375,-14479.0244140625,-15508.404296875,-11019.7509765625,-10725.3818359375,-10542.6240234375,-13985.419921875,-10760.43359375,-20108.173828125,-20150.435546875,-19985.375,-19903.912109375,-12904.0537109375,-8697.361328125,-13142.2001953125,-12049.451171875,4767.701466365
-9147.73046875,-11214.826171875,-12620.93359375,-11950.9326171875,-19930.83984375,-19931.822265625,-19620.021484375,-9470.40625,-8834.974609375,-8857.3896484375,-11003.306640625,-9167.85546875,-19970.4921875,-20001.490234375,-19543.451171875,-19809.681640625,-8114.02880859375,-13839.3505859375,-14907.9599609375,-10342.3076171875,-10050.5322265625,-9879.216796875,-13312.798828125,-10097.87890625,-19911.91015625,-19822.83984375,-19620.37109375,-19342.95703125,-12242.5400390625,-8052.4931640625,-12477.751953125,-11372.380859375,4767.703466365
-8569.5927734375,-10601.3720703125,-12112.46875,-11329.3603515625,-19752.56640625,-19741.376953125,-19341.33984375,-8873.39453125,-8211.3291015625,-8148.22412109375,-10402.8212890625,-8574.775390625,-19792.333984375,-19814.861328125,-19269.5390625,-19586.189453125,-7681.22021484375,-13332.6669921875,-14631.1298828125,-9725.58203125,-9431.8173828125,-9286.126953125,-12709.892578125,-9545.099609375,-19732.837890625,-19578.5703125,-19360.037109375,-19002.5078125,-11712.12890625,-7592.51708984375,-11954.3818359375,-10760.5,4767.705466365
-9042.0029296875,-11086.7001953125,-12600.7880859375,-11815.89453125,-19891.576171875,-19880.669921875,-19521.74609375,-9364.51171875,-8678.03515625,-8611.4775390625,-10888.9287109375,-9061.7578125,-19931.5625,-19955.642578125,-19460.552734375,-19747.232421875,-8183.337890625,-13815.7099609375,-15130.51171875,-10209.02734375,-9905.8173828125,-9765.35546875,-13197.09765625,-10034.658203125,-19872.3203125,-19739.921875,-19535.701171875,-19243.4296875,-12210.326171875,-8091.287109375,-12451.373046875,-11246.4443359375,4767.707466365
-9630.6396484375,-11708.986328125,-13117.458984375,-12447.25390625,-20072.724609375,-20075.26953125,-19867.119140625,-9972.5380859375,-9313.490234375,-9335.525390625,-11500.5126953125,-9664.3115234375,-20112.486328125,-20147.533203125,-19821.95703125,-20007.892578125,-8621.7861328125,-14329.6181640625,-15408.5439453125,-10835.6796875,-10536.4111328125,-10369.3291015625,-13808.8818359375,-10600.1015625,-20054.271484375,-20023.78125,-19854.849609375,-19748.0234375,-12746.828125,-8560.32421875,-12982.7666015625,-11867.7138671875,4767.709466365
-9479.0986328125,-11561.0302734375,-12924.3994140625,-12300.1669921875,-20031.736328125,-20054.568359375,-20037.974609375,-9813.9404296875,-9180.6103515625,-9242.8505859375,-11346.9638671875,-9507.9970703125,-20071.443359375,-20120.458984375,-19998.216796875,-20071.4921875,-8396.0302734375,-14144.521484375,-15140.642578125,-10690.587890625,-10396.8876953125,-10221.478515625,-13652.703125,-10428.720703125,-20014.46484375,-20122.599609375,-19991.412109375,-20007.7578125,-12556.037109375,-8346.1064453125,-12790.931640625,-11717.951171875,4767.711466365
-8863.0615234375,-10911.123046875,-12332.1416015625,-11644.54296875,-19844.11328125,-19880.419921875,-19655.611328125,-9170.9912109375,-8536.01171875,-8539.75390625,-10703.390625,-8871.5634765625,-19883.5234375,-19937.376953125,-19534.662109375,-19806.322265625,-7861.64501953125,-13570.3720703125,-14725.7431640625,-10041.8046875,-9750.486328125,-9589.40625,-13010.6162109375,-9814.21875,-19825.818359375,-19855.431640625,-19641.48046875,-19242.4140625,-11954.484375,-7789.8369140625,-12197.1103515625,-11071.3408203125,4767.7134663649995
-8560.578125,-10563.736328125,-12105.7060546875,-11287.5537109375,-19739.576171875,-19684.298828125,-19002.53125,-8844.5380859375,-8168.35107421875,-8045.091796875,-10369.658203125,-8550.6162109375,-19778.498046875,-19762.578125,-18934.181640625,-19366.6015625,-7765.533203125,-13356.6845703125,-14828.2607421875,-9690.234375,-9393.9755859375,-9260.12109375,-12679.28125,-9541.6630859375,-19719.287109375,-19313.09765625,-19057.98046875,-18655.69921875,-11723.7314453125,-7648.408203125,-11978.2529296875,-10728.3935546875,4767.715466365
-9271.03125,-11287.7216796875,-12833.2470703125,-12013.359375,-19947.9296875,-19929.140625,-19658.890625,-9575.51171875,-8868.8818359375,-8726.80859375,-11095.8525390625,-9276.587890625,-19987.111328125,-20020.123046875,-19634.146484375,-19875.052734375,-8520.6796875,-14072.84375,-15571.955078125,-10411.29296875,-10105.7470703125,-9971.26171875,-13404.021484375,-10269.7724609375,-19929.294921875,-19847.30078125,-19669.79296875,-19455.072265625,-12467.6787109375,-8395.9130859375,-12725.0810546875,-11452.0302734375,4767.717466364999
-9998.484375,-12060.123046875,-13489.9990234375,-12795.4736328125,-20173.673828125,-20215.767578125,-20258.0390625,-10330.58203125,-9653.548828125,-9616.3828125,-11855.1171875,-10026.9501953125,-20212.6015625,-20272.34375,-20203.009765625,-20253.064453125,-9070.974609375,-14712.4970703125,-15926.5,-11187.228515625,-10885.4111328125,-10717.427734375,-14163.3564453125,-10972.39453125,-20156.37890625,-20329.501953125,-20200.361328125,-20223.09375,-13140.8408203125,-8983.3818359375,-13388.779296875,-12220.9599609375,4767.719466365
-9794.7314453125,-11876.2587890625,-13247.4462890625,-12616.3818359375,-20122.287109375,-20144.1328125,-20012.888671875,-10131.416015625,-9488.5732421875,-9522.74609375,-11663.0361328125,-9827.818359375,-20161.029296875,-20206.392578125,-19943.37109375,-20096.466796875,-8744.91796875,-14464.6142578125,-15496.982421875,-11004.205078125,-10710.5361328125,-10528.3369140625,-13971.6298828125,-10746.849609375,-20103.646484375,-20145.2265625,-19979.921875,-19896.0546875,-12890.63671875,-8684.755859375,-13130.1494140625,-12034.2314453125,4767.721466364999
-9133.8212890625,-11201.53515625,-12609.7578125,-11936.986328125,-19927.0703125,-19928.111328125,-19614.373046875,-9454.6396484375,-8821.291015625,-8841.9970703125,-10989.349609375,-9155.0400390625,-19966.626953125,-19997.6875,-19538.001953125,-19805.294921875,-8103.4609375,-13825.9765625,-14898.3310546875,-10328.10546875,-10038.015625,-9865.7626953125,-13298.9072265625,-10086.19921875,-19907.396484375,-19818.29296875,-19615.318359375,-19336.4140625,-12229.6083984375,-8042.10888671875,-12466.7138671875,-11358.1826171875,4767.723466365
-8562.6259765625,-10594.830078125,-12108.2333984375,-11322.267578125,-19750.75390625,-19738.59375,-19338.953125,-8866.060546875,-8204.3701171875,-8138.65478515625,-10396.259765625,-8569.3974609375,-19790.64453125,-19813.783203125,-19266.146484375,-19583.892578125,-7680.26123046875,-13325.263671875,-14630.3447265625,-9718.65625,-9426.7099609375,-9280.037109375,-12702.0966796875,-9540.296875,-19730.62109375,-19575.76953125,-19357.556640625,-18999.783203125,-11708.1064453125,-7589.94677734375,-11949.7197265625,-10754.1611328125,4767.725466365
-9053.9443359375,-11097.466796875,-12613.052734375,-11827.4482421875,-19895.537109375,-19883.822265625,-19525.681640625,-9373.8515625,-8689.359375,-8620.9306640625,-10901.482421875,-9075.3525390625,-19934.6875,-19959.564453125,-19464.5078125,-19750.490234375,-8198.623046875,-13826.7197265625,-15145.0546875,-10220.466796875,-9918.48046875,-9775.9560546875,-13208.1728515625,-10048.0390625,-19875.96875,-19743.20703125,-19539.271484375,-19248.119140625,-12224.587890625,-8104.69482421875,-12464.4716796875,-11257.64453125,4767.727466365
-9650.1337890625,-11728.244140625,-13138.3271484375,-12466.15234375,-20079.0234375,-20080.11328125,-19873.767578125,-9988.0029296875,-9332.6259765625,-9352.642578125,-11520.1962890625,-9689.3427734375,-20118.146484375,-20153.734375,-19829.212890625,-20013.755859375,-8643.6328125,-14349.423828125,-15430.8935546875,-10854.359375,-10555.580078125,-10388.1728515625,-13828.015625,-10621.63671875,-20060.052734375,-20029.28515625,-19862.189453125,-19756.796875,-12768.1357421875,-8581.177734375,-13004.7607421875,-11886.7744140625,4767.729466365
-9503.7880859375,-11586.41796875,-12951.240234375,-12324.7529296875,-20039.69140625,-20061.572265625,-20047.109375,-9836.890625,-9206.2431640625,-9266.9072265625,-11372.537109375,-9537.97265625,-20079.439453125,-20128.556640625,-20007.3046875,-20079.1796875,-8423.697265625,-14171.423828125,-15168.2216796875,-10716.626953125,-10421.7744140625,-10246.759765625,-13678.56640625,-10455.6611328125,-20021.888671875,-20130.841796875,-20000.771484375,-20021.494140625,-12582.9912109375,-8373.6240234375,-12820.625,-11743.9501953125,4767.7314663649995
-8876.875,-10924.6982421875,-12346.6669921875,-11659.1533203125,-19849.0078125,-19884.59375,-19662.294921875,-9184.09765625,-8549.5439453125,-8552.5947265625,-10717.388671875,-8887.6083984375,-19888.65625,-19942.689453125,-19541.658203125,-19811.4921875,-7878.30615234375,-13584.4765625,-14742.18359375,-10055.28125,-9764.982421875,-9602.5791015625,-13025.669921875,-9830.3759765625,-19829.6015625,-19862.029296875,-19649.177734375,-19253.716796875,-11969.47265625,-7806.34619140625,-12214.5009765625,-11085.7626953125,4767.733466365
-8557.609375,-10559.814453125,-12104.203125,-11285.78515625,-19738.650390625,-19681.19921875,-18999.970703125,-8842.7109375,-8163.56494140625,-8041.02294921875,-10366.5283203125,-8547.1640625,-19777.720703125,-19761.677734375,-18931.998046875,-19362.77734375,-7765.06982421875,-13353.748046875,-14828.28515625,-9687.2607421875,-9391.5859375,-9256.748046875,-12676.53515625,-9540.0546875,-19717.9140625,-19310.748046875,-19055.92578125,-18652.427734375,-11721.466796875,-7647.80908203125,-11977.146484375,-10725.1171875,4767.735466364999
-9259.3662109375,-11274.6201171875,-12822.6396484375,-12002.33984375,-19945.095703125,-19924.505859375,-19653.115234375,-9567.1650390625,-8857.4677734375,-8717.4462890625,-11084.5849609375,-9264.453125,-19984.0078125,-20016.6171875,-19629.6328125,-19870.85546875,-8509.880859375,-14060.640625,-15558.7158203125,-10400.92578125,-10095.490234375,-9960.44921875,-13392.3515625,-10258.681640625,-19925.919921875,-19842.103515625,-19665.13671875,-19447.919921875,-12457.099609375,-8384.3994140625,-12713.0908203125,-11440.4326171875,4767.737466365
-9974.5,-12035.8759765625,-13466.98828125,-12773.3017578125,-20167.490234375,-20208.28515625,-20249.1484375,-10308.4814453125,-9631.1640625,-9595.806640625,-11832.5146484375,-10002.591796875,-20206.248046875,-20266.076171875,-20194.359375,-20245.345703125,-9047.107421875,-14687.5234375,-15899.4560546875,-11163.7666015625,-10863.7265625,-10694.982421875,-14138.7021484375,-10949.734375,-20149.66015625,-20321.298828125,-20193.0078125,-20211.94921875,-13117.875,-8959.505859375,-13364.330078125,-12197.611328125,4767.739466364999
-9767.9228515625,-11849.189453125,-13222.0185546875,-12589.9033203125,-20114.693359375,-20135.205078125,-20004.0390625,-10106.0048828125,-9462.9365234375,-9499.7265625,-11636.8583984375,-9800.837890625,-20154.4921875,-20198.806640625,-19933.28515625,-20086.970703125,-8718.9462890625,-14437.33984375,-15468.5791015625,-10978.4658203125,-10685.171875,-10503.9501953125,-13945.5302734375,-10722.5703125,-20096.23828125,-20136.39453125,-19971.267578125,-19885.716796875,-12865.7626953125,-8658.1259765625,-13103.423828125,-12008.63671875,4767.741466365
-9111.1328125,-11178.076171875,-12588.5478515625,-11915.31640625,-19920.89453125,-19921.169921875,-19606.76171875,-9433.7900390625,-8798.9892578125,-8822.6787109375,-10968.2685546875,-9133.7939453125,-19960.490234375,-19991.001953125,-19530.193359375,-19798.412109375,-8081.39306640625,-13804.7119140625,-14874.806640625,-10305.552734375,-10015.826171875,-9846.330078125,-13276.5087890625,-10066.583984375,-19901.6015625,-19811.095703125,-19607.984375,-19328.13671875,-12209.8232421875,-8019.15185546875,-12444.349609375,-11336.9619140625,4767.743466365
-8555.1123046875,-10586.7353515625,-12101.162109375,-11315.6572265625,-19749.1953125,-19736.896484375,-19336.00390625,-8860.08984375,-8196.8984375,-8134.11083984375,-10389.0400390625,-8560.7763671875,-19788.267578125,-19811.30078125,-19263.69921875,-19581.2578125,-7672.16796875,-13319.0703125,-14621.3310546875,-9710.3505859375,-9417.4052734375,-9274.0322265625,-12693.6435546875,-9535.0126953125,-19729.06640625,-19573.326171875,-19355.58984375,-18997.380859375,-11701.865234375,-7581.80322265625,-11942.77734375,-10747.4111328125,4767.745466365
-9078.7392578125,-11123.9228515625,-12637.28125,-11853.6494140625,-19902.830078125,-19891.224609375,-19533.310546875,-9402.763671875,-8715.345703125,-8650.3291015625,-10927.029296875,-9097.580078125,-19941.830078125,-19967.203125,-19473.111328125,-19758.412109375,-8220.7685546875,-13850.59375,-15164.9423828125,-10246.4599609375,-9943.1142578125,-9802.0390625,-13233.451171875,-10074.150390625,-19883.22265625,-19750.69140625,-19546.935546875,-19256.83984375,-12248.5869140625,-8128.4482421875,-12489.0556640625,-11283.6025390625,4767.747466365
-9695.130859375,-11774.0498046875,-13182.3388671875,-12512.4755859375,-20091.78515625,-20093.431640625,-19888.4296875,-10036.7060546875,-9377.7978515625,-9399.529296875,-11565.1103515625,-9729.671875,-20131.376953125,-20166.623046875,-19843.8984375,-20027.771484375,-8687.607421875,-14392.37109375,-15472.21875,-10899.93359375,-10599.8916015625,-10434.701171875,-13874.060546875,-10665.533203125,-20072.634765625,-20043.7890625,-19875.615234375,-19772.23046875,-12812.16015625,-8624.0908203125,-13047.9921875,-11931.4306640625,4767.7494663649995
-9556.556640625,-11637.2880859375,-13001.6796875,-12378.091796875,-20054.69140625,-20076.685546875,-20063.923828125,-9890.431640625,-9257.8525390625,-9317.8857421875,-11422.9462890625,-9585.2001953125,-20093.669921875,-20143.107421875,-20024.814453125,-20095.17578125,-8475.001953125,-14222.3271484375,-15218.53125,-10767.5703125,-10473.361328125,-10298.91015625,-13729.9599609375,-10506.1220703125,-20036.708984375,-20146.98046875,-20016.982421875,-20046.6796875,-12633.849609375,-8424.2001953125,-12870.58984375,-11794.634765625,4767.751466365
-8906.2685546875,-10952.3095703125,-12373.7802734375,-11686.1708984375,-19855.771484375,-19891.921875,-19676.64453125,-9211.734375,-8576.630859375,-8577.9599609375,-10743.8046875,-8911.982421875,-19895.375,-19949.66796875,-19560.990234375,-19823.71484375,-7905.81103515625,-13611.9814453125,-14771.4150390625,-10082.9423828125,-9792.173828125,-9629.6796875,-13052.978515625,-9856.5537109375,-19837.412109375,-19874.181640625,-19663.51171875,-19279.404296875,-11997.2646484375,-7833.22998046875,-12241.625,-11112.5107421875,4767.753466364999
-8548.5087890625,-10550.955078125,-12094.83203125,-11275.2666015625,-19735.5390625,-19671.828125,-18991.056640625,-8834.337890625,-8154.51318359375,-8031.6982421875,-10357.421875,-8535.869140625,-19775.470703125,-19754.275390625,-18926.666015625,-19356.798828125,-7755.77685546875,-13343.1640625,-14818.0556640625,-9677.7509765625,-9382.525390625,-9247.2470703125,-12666.8349609375,-9529.89453125,-19715.73828125,-19302.3515625,-19047.556640625,-18644.40234375,-11712.3525390625,-7636.740234375,-11967.8857421875,-10714.6474609375,4767.755466365
-9227.177734375,-11243.8779296875,-12790.24609375,-11970.4599609375,-19935.52734375,-19910.349609375,-19632.845703125,-9535.4521484375,-8826.85546875,-8689.2724609375,-11052.6025390625,-9233.01953125,-19975.57421875,-20004.380859375,-19609.62890625,-19855.474609375,-8474.5224609375,-14026.3701171875,-15518.6865234375,-10369.033203125,-10064.3095703125,-9928.81640625,-13360.84375,-10227.470703125,-19917.1328125,-19824.58203125,-19645.853515625,-19422.15234375,-12424.216796875,-8349.1171875,-12680.99609375,-11408.2939453125,4767.757466364999
-9926.2392578125,-11989.8056640625,-13419.38671875,-12727.0458984375,-20154.228515625,-20195.115234375,-20232.955078125,-10261.4814453125,-9585.7724609375,-9554.2314453125,-11785.4345703125,-9958.154296875,-20193.3046875,-20252.443359375,-20177.537109375,-20232.033203125,-8994.55859375,-14637.638671875,-15843.0791015625,-11117.181640625,-10817.484375,-10649.408203125,-14092.837890625,-10901.5234375,-20136.28125,-20307.251953125,-20177.400390625,-20188.255859375,-13070.08203125,-8908.6171875,-13316.49609375,-12149.232421875,4767.759466365
-9716.9228515625,-11800.6826171875,-13171.5830078125,-12540.7548828125,-20100.53515625,-20121.361328125,-19988.0703125,-10054.783203125,-9414.2568359375,-9455.5830078125,-11587.5771484375,-9753.7421875,-20140.091796875,-20184.19140625,-19917.740234375,-20073.314453125,-8666.7734375,-14384.296875,-15411.0146484375,-10928.6171875,-10635.7197265625,-10454.646484375,-13896.029296875,-10671.390625,-20082.17578125,-20121.80078125,-19956.029296875,-19868.427734375,-12815.4931640625,-8604.654296875,-13052.3701171875,-11956.9638671875,4767.761466365
-9075.9111328125,-11144.8701171875,-12553.625,-11880.36328125,-19910.03125,-19910.705078125,-19595.251953125,-9397.65625,-8766.396484375,-8794.2900390625,-10933.787109375,-9100.75390625,-19950.205078125,-19980.87109375,-19518.822265625,-19788.306640625,-8046.533203125,-13767.90234375,-14837.2900390625,-10270.8349609375,-9980.91015625,-9811.7783203125,-13242.654296875,-10031.83203125,-19891.703125,-19800.802734375,-19597.107421875,-19316.21875,-12173.7998046875,-7983.3310546875,-12409.708984375,-11302.35546875,4767.763466365
-8545.7060546875,-10578.791015625,-12092.1142578125,-11306.7529296875,-19745.98046875,-19733.890625,-19333.013671875,-8849.0390625,-8189.85498046875,-8129.826171875,-10379.9169921875,-8553.287109375,-19785.775390625,-19808.92578125,-19260.533203125,-19579.197265625,-7662.9521484375,-13308.7568359375,-14610.087890625,-9702.0595703125,-9408.3984375,-9265.6416015625,-12685.5849609375,-9525.94921875,-19725.921875,-19569.462890625,-19352.916015625,-18994.669921875,-11691.3828125,-7571.56787109375,-11931.392578125,-10738.4541015625,4767.765466365
-9100.689453125,-11148.29296875,-12660.1025390625,-11876.974609375,-19909.845703125,-19897.6015625,-19540.71484375,-9424.228515625,-8740.103515625,-8678.0458984375,-10950.73046875,-9122.837890625,-19948.90234375,-19974.037109375,-19480.201171875,-19765.1796875,-8240.7783203125,-13872.3173828125,-15181.19140625,-10269.5947265625,-9965.9384765625,-9826.8271484375,-13258.53125,-10096.6943359375,-19889.6484375,-19757.44921875,-19554.458984375,-19264.66015625,-12270.013671875,-8148.12109375,-12510.1767578125,-11306.8212890625,4767.767466365
-9725.9345703125,-11805.583984375,-13211.2109375,-12541.7802734375,-20101.0859375,-20102.36328125,-19898.275390625,-10067.265625,-9409.65234375,-9434.599609375,-11595.74609375,-9760.5947265625,-20140.025390625,-20175.0546875,-19853.8046875,-20037.412109375,-8713.8876953125,-14423.2900390625,-15497.666015625,-10931.212890625,-10630.9873046875,-10465.4951171875,-13904.8984375,-10696.044921875,-20081.966796875,-20053.58203125,-19886.076171875,-19783.302734375,-12840.859375,-8652.23046875,-13077.6357421875,-11962.85546875,4767.769466365
-9576.13671875,-11658.443359375,-13021.1484375,-12396.853515625,-20060.18359375,-20082.306640625,-20071.28515625,-9911.453125,-9277.6201171875,-9340.9541015625,-11442.537109375,-9603.97265625,-20100.08203125,-20149.40625,-20032.279296875,-20101.888671875,-8491.533203125,-14242.4833984375,-15235.4931640625,-10788.998046875,-10492.87890625,-10318.615234375,-13750.103515625,-10525.7421875,-20041.931640625,-20153.900390625,-20024.099609375,-20056.89453125,-12653.5732421875,-8442.408203125,-12888.908203125,-11816.0615234375,4767.7714663649995
-8914.7568359375,-10962.0830078125,-12383.8359375,-11695.8857421875,-19858.677734375,-19894.955078125,-19681.974609375,-9221.84765625,-8584.826171875,-8588.9150390625,-10754.2744140625,-8920.44140625,-19898.708984375,-19953.748046875,-19566.509765625,-19829.09375,-7915.07421875,-13623.064453125,-14781.1796875,-10092.8701171875,-9800.7919921875,-9641.318359375,-13061.8427734375,-9866.1484375,-19839.603515625,-19878.4921875,-19668.45703125,-19288.9921875,-12006.2998046875,-7842.97998046875,-12250.1494140625,-11122.1796875,4767.773466365
-8554.28125,-10557.234375,-12100.4248046875,-11281.490234375,-19737.16015625,-19675.88671875,-18997.544921875,-8840.0,-8159.7880859375,-8038.7978515625,-10364.3798828125,-8541.11328125,-19777.505859375,-19758.884765625,-18931.3359375,-19364.30859375,-7762.4658203125,-13350.0390625,-14822.955078125,-9684.3076171875,-9388.1962890625,-9254.7587890625,-12673.5283203125,-9537.3115234375,-19717.150390625,-19307.861328125,-19053.3125,-18651.42578125,-11716.326171875,-7643.76416015625,-11973.896484375,-10720.77734375,4767.775466364999
-9234.75,-11252.6181640625,-12796.318359375,-11979.111328125,-19938.212890625,-19914.392578125,-19639.318359375,-9540.89453125,-8834.5146484375,-8701.1337890625,-11061.267578125,-9242.6357421875,-19977.578125,-20008.244140625,-19615.669921875,-19862.703125,-8479.9609375,-14032.015625,-15520.6923828125,-10377.802734375,-10072.728515625,-9936.587890625,-13368.6806640625,-10235.9501953125,-19919.3125,-19831.23046875,-19651.84375,-19430.345703125,-12429.982421875,-8355.1923828125,-12686.57421875,-11416.84765625,4767.777466365
-9930.3515625,-11994.0126953125,-13421.685546875,-12730.826171875,-20154.98046875,-20196.068359375,-20233.42578125,-10259.38671875,-9589.611328125,-9561.994140625,-11789.044921875,-9966.9111328125,-20194.052734375,-20253.521484375,-20178.623046875,-20232.451171875,-8994.552734375,-14639.7744140625,-15839.5380859375,-11121.16796875,-10822.1572265625,-10653.0634765625,-14096.919921875,-10905.111328125,-20137.810546875,-20307.76953125,-20178.072265625,-20190.287109375,-13071.61328125,-8909.916015625,-13316.9765625,-12154.7373046875,4767.779466364999
-9718.23828125,-11802.537109375,-13171.388671875,-12541.515625,-20101.193359375,-20121.470703125,-19987.10546875,-10050.734375,-9415.52734375,-9459.5439453125,-11588.431640625,-9759.82421875,-20140.373046875,-20184.0234375,-19916.568359375,-20072.755859375,-8663.1064453125,-14385.9072265625,-15407.537109375,-10931.673828125,-10638.083984375,-10456.826171875,-13896.22265625,-10672.8759765625,-20082.9921875,-20120.498046875,-19954.587890625,-19867.2265625,-12813.9970703125,-8605.1484375,-13051.89453125,-11960.05078125,4767.781466365
-9073.69921875,-11143.955078125,-12553.005859375,-11878.755859375,-19910.921875,-19910.509765625,-19594.3046875,-9395.8994140625,-8763.8564453125,-8794.228515625,-10932.9599609375,-9100.9248046875,-19950.158203125,-19980.123046875,-19517.572265625,-19787.46484375,-8042.43896484375,-13767.4482421875,-14833.107421875,-10271.3212890625,-9980.740234375,-9811.11328125,-13240.8037109375,-10030.4912109375,-19891.869140625,-19798.865234375,-19596.060546875,-19314.296875,-12171.8212890625,-7981.416015625,-12408.24609375,-11300.3828125,4767.783466365
-8551.5361328125,-10586.0126953125,-12099.3671875,-11313.3740234375,-19748.380859375,-19735.853515625,-19335.59375,-8856.2265625,-8194.6630859375,-8138.2548828125,-10388.03125,-8561.5302734375,-19787.580078125,-19810.634765625,-19262.49609375,-19581.107421875,-7667.02392578125,-13317.150390625,-14615.1220703125,-9710.078125,-9416.302734375,-9273.193359375,-12692.736328125,-9532.7568359375,-19728.482421875,-19571.69921875,-19354.560546875,-18995.998046875,-11698.2587890625,-7578.41015625,-11939.416015625,-10744.7900390625,4767.785466365
-9117.896484375,-11164.947265625,-12676.4716796875,-11894.853515625,-19914.046875,-19902.888671875,-19546.66796875,-9442.1123046875,-8756.7578125,-8698.3251953125,-10968.2451171875,-9140.806640625,-19953.310546875,-19979.36328125,-19485.59765625,-19771.392578125,-8254.416015625,-13890.42578125,-15194.4326171875,-10287.9150390625,-9983.09375,-9845.84765625,-13275.978515625,-10113.650390625,-19895.1640625,-19763.095703125,-19559.71484375,-19270.701171875,-12286.3037109375,-8162.30908203125,-12526.5849609375,-11325.490234375,4767.787466365
-9739.736328125,-11818.923828125,-13223.0048828125,-12557.26953125,-20104.232421875,-20106.1015625,-19903.4140625,-10078.365234375,-9422.640625,-9449.8623046875,-11609.416015625,-9776.6748046875,-20143.55078125,-20179.232421875,-19858.765625,-20042.083984375,-8724.4443359375,-14437.1376953125,-15506.123046875,-10945.763671875,-10644.861328125,-10482.201171875,-13917.90625,-10708.8515625,-20085.802734375,-20058.150390625,-19890.451171875,-19788.935546875,-12853.91796875,-8663.0009765625,-13089.7001953125,-11977.2255859375,4767.7894663649995
-9580.2236328125,-11661.6435546875,-13023.7392578125,-12401.333984375,-20060.736328125,-20083.568359375,-20073.25390625,-9910.0673828125,-9281.234375,-9344.6611328125,-11447.150390625,-9613.0263671875,-20100.18359375,-20150.50390625,-20033.693359375,-20103.599609375,-8494.0224609375,-14246.8251953125,-15236.7314453125,-10792.66796875,-10497.6181640625,-10324.6298828125,-13753.51171875,-10529.212890625,-20043.87109375,-20155.86328125,-20025.740234375,-20058.17578125,-12656.47265625,-8444.939453125,-12893.189453125,-11819.29296875,4767.791466365
-8913.4169921875,-10960.244140625,-12383.3740234375,-11694.1865234375,-19858.390625,-19895.255859375,-19681.1640625,-9216.3515625,-8584.470703125,-8588.1904296875,-10752.3447265625,-8925.1513671875,-19897.685546875,-19953.408203125,-19564.908203125,-19828.55859375,-7914.1669921875,-13621.6728515625,-14779.87109375,-10090.7421875,-9799.7734375,-9640.0087890625,-13060.0283203125,-9865.2001953125,-19840.3515625,-19877.615234375,-19666.69921875,-19286.484375,-12005.7021484375,-7842.083984375,-12248.900390625,-11119.9111328125,4767.793466364999
-8563.0126953125,-10565.5390625,-12110.810546875,-11290.5908203125,-19739.490234375,-19680.97265625,-19005.8828125,-8844.3701171875,-8169.748046875,-8048.1220703125,-10373.1826171875,-8556.1162109375,-19779.58203125,-19765.748046875,-18939.052734375,-19370.2265625,-7769.7109375,-13359.3291015625,-14831.0947265625,-9692.087890625,-9396.24609375,-9263.802734375,-12680.9150390625,-9545.5419921875,-19719.935546875,-19314.447265625,-19060.25390625,-18659.21875,-11726.615234375,-7651.501953125,-11980.9658203125,-10728.3271484375,4767.795466365
-9253.51171875,-11271.9248046875,-12815.529296875,-11999.92578125,-19943.931640625,-19923.521484375,-19657.109375,-9559.4736328125,-8855.9765625,-8721.3681640625,-11080.8173828125,-9264.0595703125,-19983.62109375,-20016.75390625,-19631.361328125,-19873.435546875,-8494.0234375,-14050.8779296875,-15534.1181640625,-10396.763671875,-10092.734375,-9956.9091796875,-13388.490234375,-10253.6708984375,-19924.779296875,-19845.501953125,-19666.779296875,-19447.92578125,-12448.7646484375,-8371.36328125,-12705.2236328125,-11436.267578125,4767.797466364999
-9939.4248046875,-12005.134765625,-13431.626953125,-12741.1474609375,-20158.015625,-20199.33984375,-20237.111328125,-10273.11328125,-9602.5771484375,-9574.2958984375,-11799.521484375,-9973.9443359375,-20197.419921875,-20257.017578125,-20181.693359375,-20235.5390625,-9001.892578125,-14649.65234375,-15844.2958984375,-11131.484375,-10832.8115234375,-10664.623046875,-14107.2822265625,-10914.982421875,-20140.61328125,-20310.970703125,-20181.306640625,-20196.3203125,-13079.9326171875,-8917.5888671875,-13326.6357421875,-12164.416015625,4767.799466365
-9714.86328125,-11798.16015625,-13168.359375,-12538.345703125,-20100.17578125,-20120.888671875,-19984.322265625,-10049.5791015625,-9414.716796875,-9457.3662109375,-11585.1328125,-9753.7265625,-20139.69140625,-20183.60546875,-19914.1484375,-20070.7734375,-8658.7841796875,-14381.4208984375,-15403.341796875,-10927.076171875,-10633.80859375,-10452.892578125,-13893.82421875,-10669.302734375,-20081.9921875,-20119.38671875,-19952.033203125,-19863.94140625,-12809.2099609375,-8600.8232421875,-13047.9404296875,-11955.037109375,4767.801466365
-9067.1748046875,-11134.935546875,-12546.1474609375,-11870.98046875,-19908.025390625,-19908.349609375,-19591.005859375,-9381.689453125,-8757.7138671875,-8785.615234375,-10924.3603515625,-9098.8642578125,-19947.3203125,-19977.8046875,-19514.37890625,-19783.646484375,-8034.42578125,-13759.28125,-14828.82421875,-10261.734375,-9972.7138671875,-9802.4765625,-13233.20703125,-10022.6220703125,-19889.47265625,-19796.251953125,-19592.724609375,-19309.962890625,-12163.837890625,-7973.26220703125,-12400.1015625,-11290.9912109375,4767.803466365
-8549.708984375,-10583.55859375,-12099.0908203125,-11310.03515625,-19746.65625,-19734.41796875,-19334.328125,-8845.6669921875,-8193.9248046875,-8134.93994140625,-10384.6513671875,-8567.8515625,-19786.298828125,-19809.90234375,-19262.1953125,-19579.267578125,-7665.30322265625,-13315.1748046875,-14615.96875,-9704.875,-9413.1962890625,-9270.2060546875,-12689.6064453125,-9530.3896484375,-19728.0546875,-19571.115234375,-19353.03125,-18994.767578125,-11695.1005859375,-7576.083984375,-11936.3115234375,-10741.4248046875,4767.805466365
-9120.1513671875,-11167.029296875,-12678.08984375,-11896.4892578125,-19914.8046875,-19902.8359375,-19547.015625,-9434.296875,-8759.1328125,-8699.994140625,-10969.4287109375,-9153.1904296875,-19954.45703125,-19979.064453125,-19487.908203125,-19771.55859375,-8253.7607421875,-13891.3623046875,-15194.1025390625,-10289.0791015625,-9985.3857421875,-9846.4169921875,-13276.287109375,-10115.529296875,-19895.8671875,-19763.87890625,-19560.228515625,-19272.515625,-12287.216796875,-8163.4208984375,-12526.3662109375,-11325.60546875,4767.8074663649995
-9728.7587890625,-11808.1806640625,-13213.1162109375,-12546.4912109375,-20101.638671875,-20103.146484375,-19901.345703125,-10061.2626953125,-9412.3896484375,-9439.123046875,-11599.4326171875,-9775.8603515625,-20141.291015625,-20175.962890625,-19858.421875,-20039.763671875,-8712.96484375,-14427.400390625,-15496.8173828125,-10935.9267578125,-10634.6796875,-10470.669921875,-13908.0556640625,-10698.837890625,-20083.53125,-20055.720703125,-19887.9296875,-19788.45703125,-12843.919921875,-8652.0771484375,-13079.630859375,-11966.171875,4767.809466365
-9564.583984375,-11644.7373046875,-13007.7998046875,-12384.00390625,-20056.23046875,-20078.98046875,-20069.11328125,-9886.96484375,-9264.3876953125,-9327.1953125,-11429.8857421875,-9604.6533203125,-20095.818359375,-20145.47265625,-20029.6953125,-20099.373046875,-8478.5126953125,-14230.7880859375,-15224.8642578125,-10775.673828125,-10479.0009765625,-10306.8271484375,-13736.841796875,-10512.986328125,-20038.64453125,-20151.173828125,-20020.947265625,-20051.2265625,-12640.5908203125,-8428.8974609375,-12876.630859375,-11801.408203125,4767.811466364999
-8900.0068359375,-10945.9365234375,-12369.5478515625,-11678.267578125,-19854.46875,-19890.087890625,-19669.439453125,-9195.2431640625,-8568.6181640625,-8570.3505859375,-10738.1806640625,-8916.486328125,-19894.134765625,-19948.361328125,-19551.76171875,-19819.7109375,-7902.123046875,-13608.3623046875,-14773.6484375,-10076.537109375,-9784.63671875,-9624.66015625,-13045.4345703125,-9851.1689453125,-19835.244140625,-19868.974609375,-19655.7734375,-19270.740234375,-11992.2900390625,-7830.0400390625,-12234.84375,-11104.498046875,4767.813466365
-8557.505859375,-10561.04296875,-12106.287109375,-11284.8515625,-19739.01953125,-19676.2421875,-18999.34765625,-8835.6689453125,-8163.95703125,-8039.48876953125,-10368.4599609375,-8556.322265625,-19778.345703125,-19761.642578125,-18932.17578125,-19365.22265625,-7768.64990234375,-13355.85546875,-14833.1240234375,-9687.173828125,-9391.087890625,-9257.1748046875,-12677.216796875,-9541.525390625,-19718.296875,-19307.404296875,-19053.501953125,-18654.19140625,-11723.5986328125,-7649.783203125,-11978.130859375,-10725.0087890625,4767.815466364999
-9258.755859375,-11277.044921875,-12820.4560546875,-12003.4677734375,-19945.150390625,-19924.68359375,-19660.822265625,-9559.234375,-8859.9326171875,-8726.2880859375,-11086.5966796875,-9275.1826171875,-19984.513671875,-20017.576171875,-19634.6796875,-19876.39453125,-8500.94921875,-14056.560546875,-15541.65234375,-10401.3818359375,-10095.5244140625,-9961.642578125,-13393.849609375,-10259.56640625,-19926.353515625,-19847.677734375,-19671.267578125,-19452.80078125,-12454.7958984375,-8376.6015625,-12710.1904296875,-11441.279296875,4767.817466365
-9941.541015625,-12005.958984375,-13433.2802734375,-12742.96484375,-20158.232421875,-20200.3984375,-20237.25390625,-10268.587890625,-9603.2119140625,-9575.162109375,-11801.48046875,-9982.3837890625,-20197.361328125,-20256.962890625,-20182.123046875,-20235.091796875,-9005.0,-14651.8076171875,-15849.7509765625,-11133.3623046875,-10833.2763671875,-10665.986328125,-14109.1162109375,-10918.1162109375,-20141.162109375,-20310.546875,-20181.4609375,-20196.7265625,-13082.626953125,-8919.876953125,-13327.8369140625,-12166.146484375,4767.819466365
-9715.419921875,-11797.796875,-13168.931640625,-12538.1845703125,-20099.505859375,-20120.357421875,-19983.037109375,-10043.333984375,-9413.9462890625,-9455.703125,-11585.0126953125,-9759.8359375,-20139.646484375,-20183.62109375,-19912.470703125,-20069.900390625,-8661.359375,-14382.8984375,-15408.0029296875,-10927.87890625,-10632.765625,-10452.8232421875,-13893.4052734375,-10670.8046875,-20081.77734375,-20117.693359375,-19951.01953125,-19861.693359375,-12810.6689453125,-8601.47265625,-13048.04296875,-11955.669921875,4767.821466365
-9062.6923828125,-11130.5107421875,-12542.0390625,-11865.990234375,-19907.26171875,-19906.01953125,-19588.9921875,-9375.513671875,-8752.4814453125,-8779.3408203125,-10919.740234375,-9095.666015625,-19946.6484375,-19976.96875,-19511.87109375,-19782.21484375,-8034.31005859375,-13757.369140625,-14830.0234375,-10257.4228515625,-9968.673828125,-9798.2939453125,-13227.9814453125,-10020.5556640625,-19887.96875,-19794.36328125,-19590.630859375,-19307.4921875,-12161.17578125,-7972.34912109375,-12396.623046875,-11286.8974609375,4767.823466365
-8546.1064453125,-10578.1953125,-12094.982421875,-11306.03515625,-19746.1484375,-19733.5390625,-19332.646484375,-8840.8671875,-8187.6591796875,-8128.14111328125,-10379.8564453125,-8564.76953125,-19784.9296875,-19808.99609375,-19259.861328125,-19578.42578125,-7664.48095703125,-13311.38671875,-14618.2021484375,-9702.6669921875,-9409.59765625,-9266.4697265625,-12685.365234375,-9528.662109375,-19726.76953125,-19569.3046875,-19351.76171875,-18994.03515625,-11694.4287109375,-7575.7177734375,-11934.65234375,-10736.978515625,4767.825466365
-9125.474609375,-11172.048828125,-12683.44140625,-11901.9287109375,-19916.783203125,-19905.41015625,-19549.767578125,-9438.6123046875,-8763.462890625,-8705.3232421875,-10974.04296875,-9159.9873046875,-19955.583984375,-19981.013671875,-19488.55078125,-19773.66796875,-8260.666015625,-13895.7744140625,-15200.1201171875,-10295.0517578125,-9990.4072265625,-9850.7646484375,-13281.26171875,-10121.4287109375,-19897.134765625,-19765.62890625,-19562.021484375,-19275.76953125,-12293.4892578125,-8169.462890625,-12533.587890625,-11331.587890625,4767.827466365
-9734.484375,-11812.861328125,-13218.6376953125,-12551.505859375,-20103.33984375,-20105.4296875,-19904.291015625,-10066.568359375,-9417.78125,-9445.212890625,-11604.462890625,-9779.9326171875,-20142.4296875,-20177.41796875,-19859.822265625,-20041.927734375,-8718.6689453125,-14431.787109375,-15501.8369140625,-10940.6943359375,-10640.12890625,-10473.4482421875,-13912.8681640625,-10704.6064453125,-20084.015625,-20058.42578125,-19890.873046875,-19792.49609375,-12848.642578125,-8657.486328125,-13084.2890625,-11970.9501953125,4767.8294663649995
-9569.15625,-11649.228515625,-13013.0703125,-12389.6650390625,-20058.044921875,-20080.439453125,-20071.21484375,-9895.5859375,-9269.123046875,-9331.603515625,-11435.888671875,-9605.900390625,-20097.01953125,-20147.08203125,-20032.154296875,-20101.65625,-8483.4638671875,-14236.5322265625,-15231.0126953125,-10780.1123046875,-10486.0595703125,-10312.0068359375,-13742.1416015625,-10519.4501953125,-20039.34765625,-20154.017578125,-20023.6875,-20055.119140625,-12645.9208984375,-8434.515625,-12881.2001953125,-11807.048828125,4767.831466365
-8904.4912109375,-10950.01953125,-12373.79296875,-11682.435546875,-19855.814453125,-19891.607421875,-19671.341796875,-9205.1826171875,-8573.0068359375,-8572.35546875,-10741.63671875,-8915.5361328125,-19894.630859375,-19949.494140625,-19554.56640625,-19823.556640625,-7908.296875,-13614.1806640625,-14779.9638671875,-10079.6884765625,-9789.2763671875,-9629.75,-13050.357421875,-9857.9609375,-19835.623046875,-19871.404296875,-19658.79296875,-19274.787109375,-11997.8486328125,-7835.2900390625,-12241.44921875,-11109.154296875,4767.833466364999
-8567.0947265625,-10568.0078125,-12114.8603515625,-11292.2236328125,-19740.7109375,-19680.771484375,-19005.33203125,-8847.8740234375,-8171.3310546875,-8045.626953125,-10375.14453125,-8558.5537109375,-19780.033203125,-19765.53125,-18940.994140625,-19372.62109375,-7778.14501953125,-13364.0302734375,-14845.3642578125,-9694.73828125,-9399.4248046875,-9265.5869140625,-12684.009765625,-9551.46484375,-19720.23828125,-19314.82421875,-19061.234375,-18661.828125,-11731.896484375,-7658.96484375,-11987.9267578125,-10732.251953125,4767.835466365
-9272.69921875,-11290.4052734375,-12833.482421875,-12018.0263671875,-19948.837890625,-19931.59375,-19672.859375,-9578.2587890625,-8873.7392578125,-8740.2724609375,-11100.0869140625,-9282.9521484375,-19989.0859375,-20023.35546875,-19648.66015625,-19885.15234375,-8513.3251953125,-14069.7939453125,-15554.44921875,-10416.16796875,-10110.78125,-9975.962890625,-13408.8212890625,-10274.357421875,-19930.5859375,-19859.220703125,-19681.861328125,-19465.09375,-12468.0400390625,-8391.1630859375,-12724.1796875,-11454.8720703125,4767.837466365
-9948.994140625,-12012.5634765625,-13440.1474609375,-12750.181640625,-20160.986328125,-20202.482421875,-20239.298828125,-10278.9208984375,-9610.05859375,-9583.3935546875,-11809.265625,-9984.96484375,-20199.609375,-20259.072265625,-20184.392578125,-20237.28125,-9008.9921875,-14658.2900390625,-15854.607421875,-11140.236328125,-10841.3994140625,-10672.6630859375,-14117.478515625,-10924.833984375,-20143.34375,-20312.931640625,-20183.005859375,-20199.4140625,-13089.861328125,-8925.234375,-13334.833984375,-12173.087890625,4767.839466365
-9718.109375,-11800.98828125,-13172.830078125,-12541.3505859375,-20101.53125,-20120.89453125,-19982.21875,-10049.2431640625,-9414.7646484375,-9459.69140625,-11587.8759765625,-9758.40625,-20139.427734375,-20184.0546875,-19912.587890625,-20070.455078125,-8661.8349609375,-14385.0654296875,-15410.236328125,-10930.3017578125,-10636.298828125,-10455.9619140625,-13896.1611328125,-10673.3603515625,-20082.3359375,-20117.6640625,-19951.3515625,-19859.9296875,-12813.900390625,-8603.578125,-13050.666015625,-11958.1552734375,4767.841466365
-9067.931640625,-11134.599609375,-12547.6328125,-11869.9990234375,-19908.6328125,-19907.27734375,-19588.595703125,-9383.5185546875,-8755.537109375,-8782.3330078125,-10923.7802734375,-9096.5673828125,-19946.8046875,-19977.79296875,-19512.599609375,-19783.62890625,-8038.09814453125,-13762.27734375,-14834.009765625,-10262.35546875,-9972.130859375,-9803.775390625,-13232.42578125,-10024.5712890625,-19888.89453125,-19794.015625,-19591.123046875,-19307.13671875,-12165.28515625,-7976.93798828125,-12400.3408203125,-11291.5654296875,4767.843466365
-8553.7548828125,-10585.4033203125,-12104.5146484375,-11312.857421875,-19748.19921875,-19735.431640625,-19334.359375,-8851.453125,-8194.818359375,-8133.76806640625,-10387.6328125,-8567.9091796875,-19787.720703125,-19810.615234375,-19262.00390625,-19581.103515625,-7673.35498046875,-13319.904296875,-14625.453125,-9709.5751953125,-9415.765625,-9273.3818359375,-12693.5224609375,-9535.9833984375,-19728.3984375,-19570.728515625,-19353.615234375,-18995.359375,-11701.98046875,-7583.20703125,-11940.87890625,-10745.0009765625,4767.845466365
-9138.6103515625,-11185.333984375,-12697.31640625,-11915.1787109375,-19920.6875,-19908.8203125,-19554.326171875,-9456.96484375,-8777.20703125,-8718.978515625,-10988.10546875,-9166.7060546875,-19960.017578125,-19984.740234375,-19494.076171875,-19778.087890625,-8272.7861328125,-13908.6435546875,-15210.0546875,-10308.2080078125,-10004.5029296875,-9864.5712890625,-13295.8515625,-10135.0048828125,-19901.109375,-19769.974609375,-19567.287109375,-19280.12890625,-12306.607421875,-8181.208984375,-12544.794921875,-11345.7236328125,4767.8474663649995
-9740.1826171875,-11821.4365234375,-13224.9150390625,-12558.671875,-20105.57421875,-20107.462890625,-19907.94140625,-10075.609375,-9424.6630859375,-9452.138671875,-11611.3837890625,-9782.98046875,-20144.275390625,-20179.98828125,-19864.107421875,-20044.505859375,-8724.587890625,-14437.2060546875,-15504.107421875,-10948.431640625,-10647.58203125,-10482.09375,-13919.7822265625,-10711.447265625,-20086.84765625,-20060.994140625,-19894.31640625,-19796.548828125,-12855.837890625,-8663.4580078125,-13088.94140625,-11980.1689453125,4767.849466365
-9572.3515625,-11653.6376953125,-13016.2109375,-12391.6005859375,-20059.01171875,-20082.267578125,-20073.30078125,-9900.326171875,-9273.984375,-9336.2197265625,-11438.9306640625,-9607.041015625,-20097.638671875,-20147.814453125,-20034.501953125,-20102.84375,-8488.078125,-14238.1611328125,-15231.611328125,-10785.107421875,-10489.1337890625,-10314.724609375,-13745.7197265625,-10521.3291015625,-20041.232421875,-20155.6640625,-20025.923828125,-20057.75390625,-12648.98046875,-8436.908203125,-12884.2666015625,-11811.1123046875,4767.851466364999
-8903.37109375,-10948.8232421875,-12374.572265625,-11682.0087890625,-19855.236328125,-19891.5546875,-19669.03125,-9207.5126953125,-8572.833984375,-8571.8525390625,-10741.892578125,-8913.49609375,-19894.4609375,-19949.97265625,-19552.99609375,-19822.466796875,-7909.97900390625,-13613.5546875,-14780.2451171875,-10080.1181640625,-9788.80859375,-9628.0,-13050.830078125,-9856.3984375,-19836.228515625,-19870.66015625,-19658.26171875,-19273.232421875,-11997.6982421875,-7835.23876953125,-12240.6298828125,-11108.0146484375,4767.853466365
-8571.8740234375,-10572.521484375,-12121.1318359375,-11298.771484375,-19742.525390625,-19684.29296875,-19009.30859375,-8855.0380859375,-8176.587890625,-8051.35693359375,-10381.03125,-8563.5107421875,-19782.208984375,-19769.94140625,-18945.685546875,-19376.580078125,-7783.9921875,-13369.84375,-14850.72265625,-9699.853515625,-9404.11328125,-9270.9306640625,-12691.60546875,-9555.921875,-19721.3671875,-19319.537109375,-19065.76953125,-18668.498046875,-11738.3779296875,-7664.1650390625,-11992.8037109375,-10737.0146484375,4767.855466364999
-9284.7255859375,-11303.7421875,-12845.140625,-12031.73046875,-19953.142578125,-19937.98046875,-19683.439453125,-9592.908203125,-8887.1650390625,-8755.1552734375,-11112.7119140625,-9296.306640625,-19992.998046875,-20029.0390625,-19658.376953125,-19893.43359375,-8523.9716796875,-14081.634765625,-15561.3828125,-10428.4296875,-10124.1962890625,-9988.39453125,-13421.6630859375,-10286.291015625,-19933.7421875,-19869.037109375,-19692.296875,-19477.9296875,-12480.931640625,-8402.13671875,-12735.443359375,-11468.556640625,4767.857466365
-9953.8701171875,-12019.998046875,-13445.830078125,-12757.4609375,-20162.671875,-20203.970703125,-20241.744140625,-10288.2119140625,-9616.4228515625,-9592.1591796875,-11816.197265625,-9989.2451171875,-20202.341796875,-20260.591796875,-20186.22265625,-20238.955078125,-9014.064453125,-14664.419921875,-15854.65234375,-11147.2890625,-10848.2724609375,-10679.021484375,-14122.8046875,-10930.2265625,-20144.654296875,-20314.697265625,-20185.28125,-20202.33984375,-13093.8134765625,-8930.2216796875,-13340.27734375,-12180.875,4767.859466365
-9711.2626953125,-11795.943359375,-13167.3828125,-12535.638671875,-20099.357421875,-20119.251953125,-19979.564453125,-10047.9228515625,-9410.5302734375,-9453.8193359375,-11582.9306640625,-9749.4599609375,-20138.63671875,-20182.03515625,-19909.123046875,-20068.33984375,-8656.279296875,-14380.99609375,-15401.302734375,-10924.9443359375,-10630.076171875,-10450.513671875,-13890.947265625,-10667.6142578125,-20080.599609375,-20115.47265625,-19947.953125,-19856.359375,-12806.7861328125,-8597.8740234375,-13044.7060546875,-11952.78515625,4767.861466365
-9060.130859375,-11127.3701171875,-12540.2763671875,-11863.509765625,-19906.41015625,-19905.314453125,-19585.099609375,-9380.6611328125,-8749.2451171875,-8774.630859375,-10917.830078125,-9084.96875,-19945.39453125,-19975.7421875,-19509.28515625,-19781.23828125,-8030.69921875,-13755.0546875,-14827.697265625,-10254.5224609375,-9963.818359375,-9795.49609375,-13225.8623046875,-10017.001953125,-19886.9609375,-19791.392578125,-19588.064453125,-19304.169921875,-12157.265625,-7969.01904296875,-12392.0888671875,-11283.7646484375,4767.863466365
-8555.2041015625,-10587.5048828125,-12104.1962890625,-11314.841796875,-19748.62109375,-19735.701171875,-19334.33984375,-8858.197265625,-8196.02734375,-8135.4072265625,-10389.1142578125,-8563.6025390625,-19788.578125,-19811.232421875,-19262.26171875,-19581.8203125,-7673.10986328125,-13321.59765625,-14626.869140625,-9711.50390625,-9417.5673828125,-9274.140625,-12694.5498046875,-9536.0380859375,-19728.625,-19571.14453125,-19354.31640625,-18996.20703125,-11702.087890625,-7582.7109375,-11941.4677734375,-10745.44921875,4767.8654663649995
-9146.3876953125,-11193.029296875,-12702.1728515625,-11923.1220703125,-19921.896484375,-19910.44140625,-19556.65234375,-9465.275390625,-8784.478515625,-8728.1025390625,-10995.0791015625,-9172.1904296875,-19962.287109375,-19987.193359375,-19497.2421875,-19780.677734375,-8275.7900390625,-13915.72265625,-15211.5234375,-10316.6787109375,-10012.875,-9871.4580078125,-13303.4521484375,-10140.43359375,-19903.12109375,-19771.998046875,-19570.265625,-19284.669921875,-12310.931640625,-8186.07421875,-12550.0791015625,-11352.4326171875,4767.867466365
-9737.22265625,-11815.8251953125,-13220.212890625,-12555.3408203125,-20103.392578125,-20105.4765625,-19907.501953125,-10072.4599609375,-9420.6015625,-9451.68359375,-11607.7080078125,-9777.7734375,-20143.384765625,-20179.287109375,-19864.01953125,-20044.310546875,-8716.576171875,-14432.9013671875,-15496.7734375,-10945.22265625,-10644.255859375,-10477.5517578125,-13915.78515625,-10706.69140625,-20085.41015625,-20060.521484375,-19894.357421875,-19797.734375,-12848.802734375,-8657.1181640625,-13083.8447265625,-11974.3642578125,4767.869466364999
-9557.904296875,-11637.732421875,-13002.3037109375,-12378.896484375,-20054.521484375,-20077.580078125,-20069.671875,-9887.03125,-9259.306640625,-9323.625,-11424.3896484375,-9591.2744140625,-20094.14453125,-20144.00390625,-20030.67578125,-20098.83984375,-8471.998046875,-14225.2587890625,-15217.4609375,-10770.3291015625,-10474.5908203125,-10301.419921875,-13730.9150390625,-10507.3818359375,-20036.775390625,-20151.734375,-20022.271484375,-20050.41796875,-12632.5712890625,-8422.697265625,-12869.4423828125,-11796.3271484375,4767.871466365
-8887.3935546875,-10932.3134765625,-12359.4541015625,-11666.3359375,-19850.1484375,-19886.44921875,-19655.42578125,-9187.6943359375,-8555.4638671875,-8555.2841796875,-10725.748046875,-8899.1865234375,-19889.84375,-19944.37890625,-19539.689453125,-19812.423828125,-7894.60107421875,-13598.5126953125,-14767.6689453125,-10063.2373046875,-9771.6396484375,-9611.958984375,-13033.8701171875,-9840.314453125,-19831.279296875,-19858.8046875,-19645.03515625,-19255.029296875,-11981.470703125,-7821.3017578125,-12224.7607421875,-11092.2744140625,4767.873466364999
-8565.7509765625,-10567.791015625,-12116.5673828125,-11292.3935546875,-19740.193359375,-19679.130859375,-19002.251953125,-8847.6123046875,-8169.52392578125,-8044.97412109375,-10376.1943359375,-8559.4267578125,-19780.11328125,-19764.640625,-18939.357421875,-19369.759765625,-7780.0908203125,-13364.400390625,-14846.7919921875,-9694.8388671875,-9397.9443359375,-9265.1865234375,-12684.7666015625,-9550.1025390625,-19719.8984375,-19310.421875,-19057.53125,-18661.431640625,-11732.0244140625,-7660.84716796875,-11987.2138671875,-10731.1494140625,4767.875466365
-9290.4453125,-11310.1630859375,-12851.3427734375,-12037.43359375,-19955.36328125,-19939.58984375,-19688.1171875,-9596.568359375,-8892.15625,-8760.81640625,-11118.7314453125,-9302.6259765625,-19994.279296875,-20029.89453125,-19662.173828125,-19895.517578125,-8528.0693359375,-14085.8935546875,-15564.2529296875,-10435.5380859375,-10129.4248046875,-9995.642578125,-13427.55859375,-10291.2314453125,-19935.73828125,-19871.84765625,-19695.544921875,-19482.1953125,-12484.044921875,-8406.3046875,-12740.138671875,-11474.2099609375,4767.877466365
-9960.81640625,-12025.552734375,-13450.560546875,-12762.5185546875,-20164.224609375,-20205.962890625,-20241.974609375,-10292.9033203125,-9621.6630859375,-9598.40234375,-11820.904296875,-9994.9287109375,-20203.494140625,-20262.611328125,-20187.05859375,-20239.78515625,-9016.373046875,-14669.171875,-15857.56640625,-11153.6015625,-10853.2568359375,-10686.4814453125,-14127.9716796875,-10935.830078125,-20146.658203125,-20315.701171875,-20185.34375,-20204.513671875,-13099.33984375,-8933.650390625,-13344.265625,-12186.17578125,4767.879466365
-9716.296875,-11799.3486328125,-13170.734375,-12539.1142578125,-20100.05859375,-20119.896484375,-19979.3125,-10050.3359375,-9413.8505859375,-9458.8720703125,-11586.8974609375,-9756.3056640625,-20139.505859375,-20182.994140625,-19908.931640625,-20068.310546875,-8658.443359375,-14384.49609375,-15404.7158203125,-10928.830078125,-10635.2138671875,-10454.41015625,-13893.5419921875,-10671.1748046875,-20081.650390625,-20115.671875,-19947.921875,-19855.62890625,-12810.8857421875,-8600.2353515625,-13047.1640625,-11956.5634765625,4767.881466365
-9053.7099609375,-11119.90234375,-12534.8486328125,-11855.4326171875,-19903.873046875,-19903.0,-19582.421875,-9371.26953125,-8741.88671875,-8768.3193359375,-10910.849609375,-9081.7900390625,-19943.763671875,-19973.572265625,-19506.69140625,-19778.203125,-8025.2177734375,-13748.6357421875,-14824.0244140625,-10247.0341796875,-9958.3876953125,-9788.5400390625,-13219.060546875,-10010.46875,-19884.5703125,-19789.22265625,-19585.3671875,-19300.43359375,-12151.4716796875,-7964.2470703125,-12385.267578125,-11277.2255859375,4767.883466365
-8546.7392578125,-10578.060546875,-12097.310546875,-11305.3154296875,-19746.5703125,-19733.35546875,-19331.955078125,-8848.3740234375,-8187.97314453125,-8126.72021484375,-10381.0400390625,-8558.6279296875,-19786.08203125,-19808.96875,-19260.380859375,-19578.755859375,-7667.06201171875,-13313.1083984375,-14622.142578125,-9702.3984375,-9409.2646484375,-9266.607421875,-12686.5146484375,-9529.3994140625,-19726.23828125,-19568.78125,-19350.94921875,-18994.3671875,-11694.953125,-7577.7890625,-11934.4111328125,-10738.1015625,4767.885466365
-9145.2529296875,-11193.232421875,-12703.44921875,-11922.3251953125,-19922.880859375,-19911.134765625,-19557.232421875,-9467.302734375,-8785.88671875,-8728.9619140625,-10995.1806640625,-9171.8291015625,-19962.30078125,-19987.4453125,-19497.748046875,-19781.13671875,-8275.4130859375,-13915.150390625,-15211.2587890625,-10316.3505859375,-10012.0087890625,-9872.455078125,-13304.0078125,-10141.6416015625,-19903.576171875,-19773.580078125,-19570.185546875,-19286.33984375,-12312.6669921875,-8185.3408203125,-12550.849609375,-11353.2255859375,4767.887466364999
-9735.646484375,-11815.212890625,-13218.884765625,-12552.005859375,-20103.41796875,-20105.12109375,-19908.685546875,-10071.623046875,-9420.47265625,-9448.982421875,-11605.236328125,-9775.177734375,-20142.3046875,-20178.67578125,-19864.560546875,-20044.52734375,-8714.6552734375,-14430.673828125,-15494.2197265625,-10942.5439453125,-10641.6787109375,-10475.048828125,-13913.55078125,-10704.498046875,-20085.5234375,-20061.17578125,-19893.826171875,-19798.68359375,-12847.5439453125,-8654.5712890625,-13081.1552734375,-11972.669921875,4767.889466365
-9550.62890625,-11631.0390625,-12995.701171875,-12369.267578125,-20052.0859375,-20075.6796875,-20068.068359375,-9877.2666015625,-9252.5078125,-9314.2021484375,-11416.8408203125,-9587.0498046875,-20091.044921875,-20141.609375,-20028.408203125,-20097.73046875,-8465.4892578125,-14218.3193359375,-15211.64453125,-10762.6181640625,-10466.853515625,-10292.662109375,-13722.9658203125,-10499.9541015625,-20035.41796875,-20150.974609375,-20019.7578125,-20047.4296875,-12625.9765625,-8415.6826171875,-12861.73046875,-11787.4931640625,4767.891466364999
-8879.177734375,-10923.9296875,-12351.8837890625,-11656.6015625,-19847.6875,-19883.287109375,-19647.3984375,-9175.607421875,-8547.4169921875,-8543.6259765625,-10715.7275390625,-8894.603515625,-19886.8671875,-19941.408203125,-19529.88671875,-19807.298828125,-7886.85107421875,-13591.431640625,-14763.4033203125,-10053.9951171875,-9762.4560546875,-9603.7373046875,-13024.958984375,-9832.5703125,-19828.751953125,-19853.068359375,-19638.16796875,-19245.607421875,-11973.5029296875,-7813.580078125,-12217.1123046875,-11082.9765625,4767.893466365
-8566.52734375,-10568.12890625,-12116.888671875,-11292.5341796875,-19740.9375,-19676.419921875,-18999.96484375,-8842.5615234375,-8170.1591796875,-8042.57080078125,-10375.19140625,-8564.95703125,-19779.91796875,-19763.076171875,-18938.201171875,-19368.962890625,-7781.037109375,-13365.5712890625,-14850.2333984375,-9694.6064453125,-9397.005859375,-9265.77734375,-12685.0478515625,-9552.03125,-19720.064453125,-19307.763671875,-19056.76171875,-18662.28515625,-11733.880859375,-7662.3359375,-11988.8837890625,-10731.8994140625,4767.895466365
-9299.8388671875,-11320.2900390625,-12860.01953125,-12047.4267578125,-19958.17578125,-19942.203125,-19697.177734375,-9600.7783203125,-8902.4189453125,-8770.73046875,-11129.4765625,-9318.2060546875,-19997.48046875,-20033.349609375,-19671.814453125,-19901.818359375,-8537.4208984375,-14095.2890625,-15572.5966796875,-10444.0888671875,-10139.4140625,-10004.0546875,-13436.75,-10301.5126953125,-19938.80078125,-19879.009765625,-19704.125,-19492.75,-12494.81640625,-8415.6162109375,-12749.9013671875,-11484.5859375,4767.897466365
-9959.5634765625,-12026.095703125,-13450.3603515625,-12762.9697265625,-20164.65625,-20205.79296875,-20241.71875,-10286.880859375,-9622.5810546875,-9597.99609375,-11821.7509765625,-10001.3759765625,-20203.5390625,-20262.392578125,-20187.17578125,-20239.0546875,-9016.32421875,-14668.4736328125,-15856.4560546875,-11153.1591796875,-10854.78515625,-10685.5224609375,-14127.6943359375,-10934.984375,-20146.537109375,-20315.580078125,-20185.732421875,-20204.681640625,-13099.0439453125,-8933.880859375,-13343.15625,-12186.1943359375,4767.899466365
-9713.6630859375,-11796.068359375,-13168.380859375,-12536.82421875,-20100.060546875,-20119.447265625,-19976.5078125,-10044.6708984375,-9410.9599609375,-9454.841796875,-11584.0556640625,-9756.724609375,-20138.779296875,-20182.70703125,-19906.71484375,-20066.58203125,-8656.6103515625,-14382.25,-15403.443359375,-10926.845703125,-10632.6572265625,-10451.7236328125,-13891.8408203125,-10668.55078125,-20080.822265625,-20114.00390625,-19946.173828125,-19851.671875,-12807.71484375,-8599.1845703125,-13045.822265625,-11953.923828125,4767.901466365
-9053.84375,-11119.9140625,-12535.5146484375,-11855.44140625,-19903.66796875,-19902.416015625,-19581.48046875,-9369.2744140625,-8741.234375,-8765.9091796875,-10909.7119140625,-9083.5126953125,-19943.119140625,-19973.994140625,-19505.900390625,-19777.66015625,-8026.25390625,-13750.775390625,-14827.89453125,-10248.251953125,-9958.314453125,-9788.6728515625,-13219.4365234375,-10011.4765625,-19884.76953125,-19788.697265625,-19584.421875,-19298.455078125,-12151.8994140625,-7965.34716796875,-12388.1552734375,-11277.146484375,4767.903466365
-8551.9462890625,-10583.95703125,-12103.953125,-11311.78125,-19747.2421875,-19733.98046875,-19333.564453125,-8851.052734375,-8193.3447265625,-8129.421875,-10386.3828125,-8566.7412109375,-19787.361328125,-19810.115234375,-19261.873046875,-19580.18359375,-7674.32080078125,-13320.796875,-14631.96484375,-9708.0146484375,-9414.9052734375,-9272.416015625,-12692.3984375,-9535.556640625,-19728.759765625,-19569.736328125,-19353.142578125,-18995.279296875,-11701.716796875,-7583.98681640625,-11942.1201171875,-10743.8271484375,4767.9054663649995
-9151.5849609375,-11200.5546875,-12708.2109375,-11930.3935546875,-19924.177734375,-19912.431640625,-19560.771484375,-9470.5302734375,-8792.0927734375,-8734.15625,-11002.857421875,-9181.1572265625,-19964.24609375,-19989.41796875,-19501.05078125,-19783.3203125,-8281.3994140625,-13922.26171875,-15217.150390625,-10322.759765625,-10018.962890625,-9878.0478515625,-13310.498046875,-10147.1357421875,-19905.498046875,-19775.068359375,-19573.015625,-19289.595703125,-12318.24609375,-8192.1884765625,-12558.5888671875,-11359.591796875,4767.907466365
-9730.0908203125,-11809.998046875,-13211.501953125,-12547.4521484375,-20102.169921875,-20104.224609375,-19908.626953125,-10061.3994140625,-9415.3759765625,-9444.3876953125,-11600.7607421875,-9775.1884765625,-20141.80078125,-20177.16015625,-19864.8515625,-20042.880859375,-8709.29296875,-14425.23046875,-15488.8251953125,-10937.00390625,-10636.4990234375,-10468.830078125,-13907.9404296875,-10698.646484375,-20083.61328125,-20060.263671875,-19894.427734375,-19800.376953125,-12842.0390625,-8649.5517578125,-13076.927734375,-11967.89453125,4767.909466364999
-9544.232421875,-11623.759765625,-12987.5439453125,-12362.8984375,-20050.529296875,-20073.849609375,-20067.505859375,-9866.072265625,-9244.7890625,-9306.8701171875,-11410.6220703125,-9583.755859375,-20089.720703125,-20140.015625,-20027.0234375,-20095.2265625,-8457.560546875,-14209.90625,-15205.4765625,-10755.5927734375,-10459.7099609375,-10285.6650390625,-13715.986328125,-10493.138671875,-20032.98828125,-20149.494140625,-20019.19140625,-20045.890625,-12620.169921875,-8409.38671875,-12855.072265625,-11781.4716796875,4767.911466365
-8875.3701171875,-10917.4189453125,-12348.0107421875,-11651.890625,-19846.216796875,-19881.716796875,-19642.486328125,-9169.3369140625,-8541.65234375,-8538.3271484375,-10711.66015625,-8891.1591796875,-19885.73828125,-19939.80078125,-19525.0234375,-19804.193359375,-7883.18115234375,-13586.783203125,-14761.775390625,-10049.7431640625,-9757.634765625,-9598.28515625,-13020.12109375,-9827.05859375,-19827.482421875,-19849.498046875,-19633.736328125,-19239.109375,-11968.892578125,-7810.48486328125,-12212.69921875,-11077.9580078125,4767.913466364999
-8565.56640625,-10566.0556640625,-12117.8115234375,-11291.35546875,-19740.064453125,-19674.177734375,-18997.65625,-8840.962890625,-8168.20703125,-8041.10888671875,-10373.9736328125,-8565.2861328125,-19780.015625,-19761.83984375,-18936.95703125,-19367.892578125,-7781.51220703125,-13366.4482421875,-14852.7431640625,-9693.767578125,-9396.443359375,-9263.9462890625,-12684.1435546875,-9551.041015625,-19719.8359375,-19306.162109375,-19054.67578125,-18661.306640625,-11733.181640625,-7662.6708984375,-11989.22265625,-10731.2470703125,4767.915466365
-9310.162109375,-11330.6513671875,-12869.529296875,-12057.5185546875,-19960.775390625,-19946.572265625,-19704.52734375,-9608.9052734375,-8911.3203125,-8780.6767578125,-11138.9609375,-9330.6005859375,-20000.244140625,-20036.234375,-19677.775390625,-19907.85546875,-8547.025390625,-14105.0556640625,-15579.759765625,-10456.181640625,-10149.2666015625,-10013.64453125,-13447.580078125,-10310.3447265625,-19941.90234375,-19885.611328125,-19711.181640625,-19501.853515625,-12504.5107421875,-8425.0400390625,-12759.9248046875,-11494.79296875,4767.917466365
-9967.99609375,-12034.177734375,-13456.6494140625,-12770.935546875,-20166.982421875,-20207.990234375,-20244.482421875,-10292.4033203125,-9630.037109375,-9605.328125,-11828.6064453125,-10011.0478515625,-20205.552734375,-20264.36328125,-20187.60546875,-20240.91796875,-9023.130859375,-14676.3916015625,-15860.921875,-11162.119140625,-10861.2763671875,-10692.4775390625,-14136.4521484375,-10942.5302734375,-20149.02734375,-20317.103515625,-20187.232421875,-20207.28515625,-13106.4892578125,-8940.0869140625,-13349.890625,-12194.376953125,4767.919466365
-9715.78515625,-11798.3232421875,-13169.5244140625,-12538.2041015625,-20099.6015625,-20119.91015625,-19975.90625,-10040.7841796875,-9413.2421875,-9455.89453125,-11585.5439453125,-9763.115234375,-20139.3359375,-20182.4296875,-19905.015625,-20067.037109375,-8657.7109375,-14383.9990234375,-15404.8583984375,-10928.4833984375,-10633.9189453125,-10453.205078125,-13893.43359375,-10670.8466796875,-20081.0859375,-20113.251953125,-19944.978515625,-19850.025390625,-12810.3017578125,-8599.16015625,-13046.6552734375,-11955.8095703125,4767.921466365
-9051.087890625,-11116.7373046875,-12533.2373046875,-11851.640625,-19902.130859375,-19901.103515625,-19579.5078125,-9358.9609375,-8738.029296875,-8761.0810546875,-10906.2734375,-9086.9580078125,-19942.2421875,-19971.974609375,-19503.525390625,-19776.46484375,-8024.384765625,-13747.8291015625,-14824.87890625,-10243.955078125,-9953.7822265625,-9785.2197265625,-13214.8134765625,-10006.9404296875,-19883.318359375,-19785.93359375,-19582.36328125,-19295.994140625,-12148.3740234375,-7961.68994140625,-12384.1806640625,-11273.6513671875,4767.9234663649995
-8548.646484375,-10580.4296875,-12101.380859375,-11307.376953125,-19746.49609375,-19733.60546875,-19332.5390625,-8839.064453125,-8189.4931640625,-8125.2578125,-10381.6240234375,-8573.533203125,-19786.310546875,-19809.359375,-19260.77734375,-19579.564453125,-7672.23681640625,-13317.5732421875,-14628.509765625,-9704.25,-9409.2763671875,-9268.5966796875,-12689.0185546875,-9531.5732421875,-19727.05078125,-19568.623046875,-19351.513671875,-18993.8671875,-11698.10546875,-7581.44482421875,-11938.20703125,-10738.8056640625,4767.925466365
-9155.26953125,-11204.48828125,-12712.1435546875,-11935.21484375,-19926.4765625,-19914.498046875,-19562.275390625,-9466.4501953125,-8796.04296875,-8740.6767578125,-11006.041015625,-9194.16796875,-19965.05859375,-19990.5859375,-19502.953125,-19784.783203125,-8284.7626953125,-13925.1142578125,-15217.994140625,-10327.365234375,-10022.4560546875,-9883.3466796875,-13315.681640625,-10152.3466796875,-19906.701171875,-19777.20703125,-19574.658203125,-19291.73828125,-12323.1650390625,-8194.9248046875,-12561.13671875,-11361.98828125,4767.927466364999
-9732.7431640625,-11812.9013671875,-13214.7880859375,-12551.01953125,-20103.064453125,-20105.634765625,-19910.376953125,-10057.5654296875,-9418.0439453125,-9447.705078125,-11602.6513671875,-9784.2744140625,-20142.4140625,-20177.515625,-19867.32421875,-20044.013671875,-8709.845703125,-14427.9658203125,-15489.87109375,-10939.78125,-10639.87890625,-10473.5341796875,-13911.048828125,-10702.25,-20084.228515625,-20062.27734375,-19896.279296875,-19803.49609375,-12843.5234375,-8650.4052734375,-13079.26171875,-11969.6708984375,4767.929466365
-9542.8603515625,-11622.76953125,-12986.6201171875,-12360.8095703125,-20049.666015625,-20073.828125,-20067.814453125,-9859.009765625,-9242.3525390625,-9304.99609375,-11408.0732421875,-9587.220703125,-20089.197265625,-20139.263671875,-20027.505859375,-20094.984375,-8455.0537109375,-14208.7138671875,-15203.16796875,-10753.6357421875,-10458.3974609375,-10285.1748046875,-13715.2490234375,-10489.806640625,-20032.697265625,-20150.177734375,-20019.23046875,-20046.0703125,-12617.8642578125,-8406.833984375,-12852.64453125,-11779.623046875,4767.931466364999
-8870.6357421875,-10914.234375,-12344.228515625,-11645.9130859375,-19845.228515625,-19880.310546875,-19638.97265625,-9159.7578125,-8536.5146484375,-8533.4169921875,-10707.0322265625,-8891.4052734375,-19884.421875,-19938.671875,-19520.953125,-19800.205078125,-7879.8291015625,-13583.4169921875,-14759.3857421875,-10046.2509765625,-9753.5380859375,-9594.982421875,-13015.5224609375,-9822.44140625,-19826.439453125,-19846.80859375,-19628.974609375,-19233.890625,-11964.7451171875,-7806.47509765625,-12207.7470703125,-11073.0390625,4767.933466365
-8573.90234375,-10574.8857421875,-12124.474609375,-11299.0576171875,-19742.12109375,-19679.375,-19004.98046875,-8843.44140625,-8176.9091796875,-8048.2939453125,-10382.1806640625,-8577.162109375,-19782.263671875,-19766.498046875,-18944.26953125,-19372.638671875,-7788.81396484375,-13374.2587890625,-14860.986328125,-9701.755859375,-9404.37109375,-9273.1787109375,-12690.8642578125,-9557.8974609375,-19721.9296875,-19311.81640625,-19060.19140625,-18667.857421875,-11740.314453125,-7670.47412109375,-11996.3095703125,-10737.619140625,4767.935466365
-9322.2578125,-11342.875,-12881.779296875,-12071.44921875,-19964.228515625,-19953.171875,-19715.462890625,-9616.3857421875,-8926.1337890625,-8795.9599609375,-11151.2568359375,-9347.0224609375,-20004.212890625,-20041.626953125,-19689.60546875,-19915.9609375,-8556.57421875,-14117.1708984375,-15587.8115234375,-10468.078125,-10162.6025390625,-10026.9521484375,-13459.6396484375,-10322.560546875,-19945.7265625,-19894.94140625,-19721.52734375,-19513.98828125,-12515.099609375,-8435.77734375,-12771.681640625,-11506.228515625,4767.937466365
-9970.6865234375,-12037.0078125,-13460.291015625,-12774.1162109375,-20166.75390625,-20208.544921875,-20245.0703125,-10288.5087890625,-9634.755859375,-9611.2626953125,-11831.1826171875,-10020.001953125,-20206.6875,-20265.4921875,-20188.65234375,-20241.8125,-9023.1796875,-14678.013671875,-15860.4541015625,-11163.220703125,-10864.8046875,-10696.2216796875,-14138.564453125,-10945.0244140625,-20149.884765625,-20317.599609375,-20188.103515625,-20208.96875,-13107.787109375,-8941.8603515625,-13352.134765625,-12195.193359375,4767.939466365
-9710.6533203125,-11794.2509765625,-13164.7021484375,-12533.279296875,-20097.927734375,-20117.728515625,-19973.03515625,-10030.763671875,-9410.5029296875,-9452.6279296875,-11581.0546875,-9761.671875,-20137.30859375,-20181.392578125,-19902.765625,-20065.318359375,-8652.041015625,-14378.90234375,-15398.2578125,-10922.060546875,-10628.5791015625,-10448.1533203125,-13889.4287109375,-10663.66796875,-20079.59375,-20111.060546875,-19942.921875,-19846.251953125,-12803.412109375,-8594.8837890625,-13041.2373046875,-11950.35546875,4767.9414663649995
-9042.666015625,-11109.0087890625,-12524.943359375,-11844.01953125,-19900.220703125,-19899.3203125,-19575.681640625,-9347.8359375,-8731.267578125,-8752.56640625,-10898.8779296875,-9081.287109375,-19939.759765625,-19969.27734375,-19500.38671875,-19773.71875,-8017.01123046875,-13740.3779296875,-14818.181640625,-10236.5498046875,-9946.673828125,-9778.0009765625,-13208.271484375,-9998.4111328125,-19880.9375,-19784.15234375,-19578.888671875,-19292.146484375,-12139.6162109375,-7954.14892578125,-12377.0068359375,-11265.494140625,4767.943466365
-8545.7685546875,-10578.904296875,-12098.7373046875,-11305.2802734375,-19745.947265625,-19732.310546875,-19331.298828125,-8834.8857421875,-8187.54296875,-8122.7509765625,-10380.37890625,-8572.255859375,-19785.49609375,-19808.1171875,-19259.69140625,-19578.69140625,-7671.7578125,-13315.81640625,-14628.408203125,-9703.171875,-9408.607421875,-9266.828125,-12686.3857421875,-9529.9287109375,-19725.90625,-19568.611328125,-19350.671875,-18993.45703125,-11696.0771484375,-7579.1591796875,-11937.447265625,-10737.1865234375,4767.945466364999
-9160.453125,-11211.0498046875,-12716.9921875,-11940.9990234375,-19927.431640625,-19915.8671875,-19565.240234375,-9470.298828125,-8802.490234375,-8747.48828125,-11013.140625,-9201.8603515625,-19967.1328125,-19992.3984375,-19505.462890625,-19787.2734375,-8288.3291015625,-13929.9677734375,-15219.1845703125,-10333.6982421875,-10028.9541015625,-9888.94140625,-13320.69921875,-10156.251953125,-19907.6875,-19779.796875,-19577.54296875,-19295.224609375,-12325.8759765625,-8198.7333984375,-12567.4287109375,-11369.3046875,4767.947466365
-9730.6708984375,-11811.015625,-13212.021484375,-12550.7822265625,-20102.453125,-20104.953125,-19912.001953125,-10056.1259765625,-9416.9208984375,-9447.5478515625,-11601.2919921875,-9781.720703125,-20141.95703125,-20177.978515625,-19868.224609375,-20045.1640625,-8706.7880859375,-14425.0576171875,-15482.45703125,-10939.203125,-10638.3349609375,-10471.2236328125,-13909.9951171875,-10698.4638671875,-20083.494140625,-20062.48828125,-19896.970703125,-19805.4921875,-12839.4658203125,-8647.8876953125,-13076.525390625,-11968.283203125,4767.949466364999
-9535.0859375,-11614.900390625,-12979.0244140625,-12354.716796875,-20047.650390625,-20071.365234375,-20066.267578125,-9851.52734375,-9235.5380859375,-9299.0498046875,-11400.56640625,-9579.0078125,-20087.564453125,-20137.400390625,-20025.693359375,-20093.8828125,-8448.369140625,-14201.3076171875,-15195.1884765625,-10745.8525390625,-10451.646484375,-10276.8662109375,-13707.935546875,-10482.943359375,-20029.974609375,-20148.56640625,-20017.79296875,-20042.521484375,-12608.2529296875,-8398.8525390625,-12845.365234375,-11771.8759765625,4767.951466365
-8860.7861328125,-10902.6748046875,-12333.0234375,-11635.779296875,-19842.2578125,-19877.115234375,-19628.685546875,-9149.568359375,-8526.4482421875,-8521.6064453125,-10695.9501953125,-8878.3984375,-19881.251953125,-19935.091796875,-19510.609375,-19793.732421875,-7870.94580078125,-13574.0869140625,-14753.0341796875,-10034.228515625,-9742.83203125,-9583.962890625,-13004.283203125,-9812.890625,-19822.69921875,-19839.3984375,-19621.23828125,-19222.658203125,-11954.875,-7797.27685546875,-12199.5791015625,-11062.8515625,4767.953466365
-8571.6103515625,-10570.486328125,-12122.337890625,-11296.62109375,-19740.765625,-19676.48828125,-19000.5703125,-8843.0869140625,-8174.14306640625,-8043.73095703125,-10379.1162109375,-8573.5361328125,-19780.8046875,-19763.4296875,-18941.453125,-19368.529296875,-7788.0517578125,-13372.1748046875,-14861.5439453125,-9698.201171875,-9400.9619140625,-9269.62109375,-12689.8623046875,-9557.6767578125,-19721.123046875,-19307.859375,-19056.734375,-18665.01953125,-11739.8603515625,-7669.52099609375,-11994.1904296875,-10735.4853515625,4767.955466365
-9335.013671875,-11354.630859375,-12893.015625,-12083.4990234375,-19967.654296875,-19957.15234375,-19725.990234375,-9632.5810546875,-8938.3720703125,-8809.9140625,-11163.18359375,-9357.79296875,-20007.9140625,-20045.279296875,-19698.90234375,-19921.48828125,-8567.25390625,-14128.3916015625,-15598.7265625,-10481.7744140625,-10174.75,-10038.322265625,-13472.423828125,-10334.5537109375,-19949.259765625,-19903.396484375,-19730.640625,-19524.79296875,-12527.8349609375,-8447.359375,-12783.51953125,-11519.2060546875,4767.957466365
-9982.4013671875,-12048.0732421875,-13470.7587890625,-12786.0322265625,-20170.7578125,-20212.23046875,-20248.201171875,-10303.9638671875,-9645.974609375,-9623.0830078125,-11842.060546875,-10027.982421875,-20210.06640625,-20268.626953125,-20191.794921875,-20244.390625,-9032.6279296875,-14688.962890625,-15868.2197265625,-11176.572265625,-10876.7236328125,-10706.947265625,-14150.7822265625,-10954.697265625,-20153.1875,-20320.923828125,-20191.27734375,-20213.73828125,-13118.259765625,-8952.125,-13363.5302734375,-12207.126953125,4767.959466365
-9715.58984375,-11798.5556640625,-13170.55859375,-12538.3056640625,-20100.01953125,-20119.4453125,-19973.234375,-10038.6357421875,-9413.736328125,-9456.7197265625,-11585.296875,-9764.587890625,-20139.544921875,-20181.90625,-19902.525390625,-20066.23046875,-8657.0400390625,-14384.39453125,-15402.353515625,-10927.7177734375,-10634.767578125,-10454.1376953125,-13894.5595703125,-10669.2568359375,-20081.91015625,-20111.404296875,-19943.236328125,-19845.607421875,-12808.619140625,-8599.9609375,-13046.6123046875,-11955.353515625,4767.961466365
-9045.263671875,-11110.3388671875,-12527.8759765625,-11845.2802734375,-19900.939453125,-19899.16015625,-19575.634765625,-9352.748046875,-8733.380859375,-8753.8203125,-10901.271484375,-9080.4287109375,-19940.91015625,-19969.556640625,-19500.029296875,-19774.1953125,-8019.14306640625,-13743.0234375,-14822.53515625,-10236.6728515625,-9948.6201171875,-9779.595703125,-13209.7861328125,-10001.490234375,-19882.466796875,-19783.72265625,-19579.498046875,-19291.630859375,-12142.8701171875,-7957.34912109375,-12378.5556640625,-11266.767578125,4767.9634663649995
-8552.37890625,-10583.5703125,-12105.212890625,-11310.4287109375,-19746.46875,-19733.837890625,-19332.501953125,-8843.2451171875,-8192.5869140625,-8126.22998046875,-10385.849609375,-8573.556640625,-19787.013671875,-19809.771484375,-19261.77734375,-19580.203125,-7677.1630859375,-13322.0576171875,-14636.0888671875,-9707.1337890625,-9413.8046875,-9271.880859375,-12692.349609375,-9534.943359375,-19728.1953125,-19569.634765625,-19352.712890625,-18995.208984375,-11701.9482421875,-7586.7451171875,-11941.419921875,-10741.8583984375,4767.965466365
-9167.8662109375,-11218.1884765625,-12724.1435546875,-11949.1318359375,-19929.25390625,-19918.740234375,-19568.1328125,-9479.45703125,-8810.3251953125,-8754.8896484375,-11020.9013671875,-9207.509765625,-19969.08984375,-19994.302734375,-19508.9921875,-19789.455078125,-8294.7509765625,-13936.5732421875,-15224.3740234375,-10341.28125,-10036.470703125,-9894.94140625,-13328.33984375,-10162.9931640625,-19910.13671875,-19782.37109375,-19580.447265625,-19298.75390625,-12334.15625,-8206.8525390625,-12572.6025390625,-11377.9951171875,4767.967466364999
-9721.2900390625,-11801.9443359375,-13201.845703125,-12540.8173828125,-20099.734375,-20102.95703125,-19910.677734375,-10047.138671875,-9407.3017578125,-9438.7236328125,-11592.3515625,-9773.140625,-20139.3828125,-20174.720703125,-19866.638671875,-20043.123046875,-8697.4296875,-14415.1220703125,-15471.4482421875,-10928.0693359375,-10628.623046875,-10461.4736328125,-13900.3505859375,-10688.5615234375,-20081.12890625,-20061.263671875,-19895.984375,-19804.994140625,-12830.9775390625,-8638.8408203125,-13066.4501953125,-11959.9072265625,4767.969466365
-9514.8330078125,-11594.349609375,-12957.921875,-12333.505859375,-20042.298828125,-20065.939453125,-20061.48046875,-9832.7080078125,-9216.3408203125,-9278.890625,-11379.9912109375,-9557.37890625,-20081.22265625,-20131.3359375,-20019.728515625,-20088.880859375,-8427.48046875,-14181.224609375,-15174.107421875,-10725.4404296875,-10430.953125,-10257.5126953125,-13687.052734375,-10462.669921875,-20023.888671875,-20142.875,-20012.615234375,-20032.62890625,-12588.056640625,-8378.796875,-12824.8662109375,-11751.146484375,4767.971466364999
-8846.33203125,-10887.8427734375,-12318.6728515625,-11620.0859375,-19837.83203125,-19872.197265625,-19616.58203125,-9136.67578125,-8511.689453125,-8504.888671875,-10681.2626953125,-8862.947265625,-19877.134765625,-19929.984375,-19498.173828125,-19784.435546875,-7857.55712890625,-13558.630859375,-14739.564453125,-10019.4052734375,-9727.353515625,-9568.8603515625,-12989.2900390625,-9799.2724609375,-19818.212890625,-19830.287109375,-19610.53515625,-19203.73046875,-11940.046875,-7783.18408203125,-12184.615234375,-11046.2314453125,4767.973466365
-8573.4951171875,-10573.298828125,-12124.3525390625,-11297.697265625,-19741.697265625,-19674.787109375,-18999.216796875,-8847.177734375,-8175.25390625,-8045.0361328125,-10380.9521484375,-8573.2255859375,-19781.796875,-19763.58203125,-18941.421875,-19368.20703125,-7791.1572265625,-13374.1865234375,-14864.611328125,-9700.6630859375,-9403.7333984375,-9271.279296875,-12689.646484375,-9559.037109375,-19721.884765625,-19307.6015625,-19056.244140625,-18667.9140625,-11741.7333984375,-7672.53076171875,-11997.380859375,-10736.4365234375,4767.975466365
-9348.9287109375,-11369.4736328125,-12905.70703125,-12097.60546875,-19972.119140625,-19961.986328125,-19736.052734375,-9647.880859375,-8951.7373046875,-8822.818359375,-11176.853515625,-9368.595703125,-20011.859375,-20050.23046875,-19708.8828125,-19929.330078125,-8579.7578125,-14141.0166015625,-15609.7783203125,-10494.4072265625,-10189.072265625,-10052.734375,-13485.6103515625,-10348.0380859375,-19953.580078125,-19913.26953125,-19740.48828125,-19537.751953125,-12541.091796875,-8460.6142578125,-12796.30859375,-11532.501953125,4767.977466365
-9994.62109375,-12060.443359375,-13481.6806640625,-12797.8203125,-20174.029296875,-20215.365234375,-20250.927734375,-10316.8818359375,-9657.453125,-9634.236328125,-11855.076171875,-10038.1064453125,-20213.669921875,-20272.08984375,-20194.525390625,-20246.904296875,-9043.03125,-14699.9892578125,-15878.5615234375,-11187.4990234375,-10887.7861328125,-10718.7763671875,-14163.7431640625,-10966.919921875,-20156.34765625,-20323.982421875,-20194.4765625,-20218.2734375,-13130.6953125,-8963.1669921875,-13374.9697265625,-12219.677734375,4767.979466365
-9728.783203125,-11810.7578125,-13181.337890625,-12552.5283203125,-20103.982421875,-20122.8515625,-19974.685546875,-10051.513671875,-9426.7900390625,-9468.15234375,-11597.234375,-9776.5009765625,-20143.06640625,-20185.80078125,-19904.525390625,-20068.88671875,-8668.7177734375,-14396.52734375,-15415.08203125,-10940.94140625,-10646.69140625,-10465.7236328125,-13907.029296875,-10681.3876953125,-20084.703125,-20114.63671875,-19945.228515625,-19846.3359375,-12821.560546875,-8611.6552734375,-13059.2060546875,-11969.2744140625,4767.9814663649995
-9054.64453125,-11120.2568359375,-12536.232421875,-11854.5400390625,-19903.765625,-19901.4609375,-19577.349609375,-9361.419921875,-8741.4443359375,-8761.6083984375,-10909.5146484375,-9089.5009765625,-19942.8203125,-19972.33984375,-19501.326171875,-19776.44921875,-8028.921875,-13752.5048828125,-14833.326171875,-10247.513671875,-9958.0439453125,-9788.78125,-13219.34765625,-10010.3330078125,-19883.658203125,-19786.125,-19580.734375,-19292.2734375,-12153.4697265625,-7967.490234375,-12388.7412109375,-11276.5595703125,4767.983466365
-8556.4345703125,-10588.6142578125,-12109.8564453125,-11314.427734375,-19748.26171875,-19734.736328125,-19333.69140625,-8847.7548828125,-8196.41796875,-8130.81982421875,-10389.357421875,-8576.859375,-19788.423828125,-19811.15625,-19261.806640625,-19582.140625,-7681.701171875,-13327.396484375,-14641.0126953125,-9711.677734375,-9417.84375,-9275.7470703125,-12696.7236328125,-9538.861328125,-19728.56640625,-19571.1015625,-19353.431640625,-18996.61328125,-11707.087890625,-7591.42919921875,-11946.630859375,-10746.20703125,4767.985466364999
-9166.7333984375,-11216.78515625,-12721.634765625,-11946.4833984375,-19929.4609375,-19917.16796875,-19568.01953125,-9478.19140625,-8808.3134765625,-8753.9814453125,-11017.4609375,-9204.646484375,-19968.73046875,-19994.271484375,-19509.212890625,-19789.916015625,-8290.998046875,-13934.0302734375,-15219.68359375,-10339.208984375,-10034.5869140625,-9892.9755859375,-13326.5048828125,-10160.24609375,-19909.552734375,-19782.544921875,-19580.27734375,-19299.73046875,-12331.2392578125,-8203.453125,-12569.90234375,-11374.2998046875,4767.987466365
-9707.2548828125,-11788.841796875,-13188.6015625,-12526.7607421875,-20095.73828125,-20099.013671875,-19907.955078125,-10033.2158203125,-9394.2392578125,-9426.09375,-11578.15625,-9759.7607421875,-20135.67578125,-20171.298828125,-19865.0078125,-20040.095703125,-8682.07421875,-14400.6533203125,-15455.841796875,-10915.9892578125,-10615.111328125,-10447.5791015625,-13887.0537109375,-10675.048828125,-20077.00390625,-20058.185546875,-19892.705078125,-19803.544921875,-12815.7998046875,-8622.517578125,-13052.388671875,-11945.7685546875,4767.989466364999
-9498.12890625,-11577.48828125,-12941.978515625,-12316.69140625,-20037.228515625,-20061.607421875,-20056.591796875,-9813.654296875,-9198.1904296875,-9261.810546875,-11362.6298828125,-9542.87890625,-20076.861328125,-20126.75390625,-20015.22265625,-20083.615234375,-8410.83203125,-14163.5458984375,-15157.1982421875,-10709.177734375,-10413.5576171875,-10239.4560546875,-13670.587890625,-10445.4921875,-20019.197265625,-20138.794921875,-20007.47265625,-20024.49609375,-12569.880859375,-8361.1025390625,-12807.8232421875,-11734.9716796875,4767.991466365
-8834.5322265625,-10875.56640625,-12309.4873046875,-11609.30078125,-19834.1328125,-19869.32421875,-19606.619140625,-9121.7646484375,-8498.5419921875,-8493.1025390625,-10669.5361328125,-8854.73046875,-19873.421875,-19926.314453125,-19487.279296875,-19777.462890625,-7848.4912109375,-13548.7880859375,-14731.73046875,-10007.5751953125,-9716.3193359375,-9557.5439453125,-12978.1123046875,-9786.0068359375,-19814.73046875,-19822.107421875,-19599.91015625,-19190.40625,-11929.0556640625,-7773.06689453125,-12174.587890625,-11036.3818359375,4767.993466365
-8586.4296875,-10585.5498046875,-12138.46875,-11311.5634765625,-19744.8984375,-19683.34765625,-19009.806640625,-8855.62890625,-8187.7158203125,-8057.40478515625,-10394.216796875,-8589.1201171875,-19785.1796875,-19770.171875,-18952.03515625,-19379.171875,-7806.35302734375,-13388.1923828125,-14880.255859375,-9714.1083984375,-9415.5361328125,-9283.77734375,-12703.9619140625,-9570.5478515625,-19725.15234375,-19316.998046875,-19065.45703125,-18679.25390625,-11755.0400390625,-7685.98486328125,-12010.517578125,-10750.6435546875,4767.995466365
-9382.0263671875,-11402.666015625,-12939.0126953125,-12132.375,-19981.029296875,-19977.52734375,-19761.35546875,-9682.865234375,-8984.62890625,-8857.41796875,-11211.5107421875,-9400.341796875,-20021.572265625,-20062.337890625,-19733.255859375,-19948.3125,-8612.126953125,-14175.291015625,-15641.5908203125,-10529.490234375,-10222.96875,-10085.9423828125,-13520.103515625,-10380.5732421875,-19962.84375,-19934.314453125,-19764.1953125,-19567.287109375,-12574.4580078125,-8492.3095703125,-12830.0908203125,-11567.541015625,4767.997466365
-10024.560546875,-12089.888671875,-13510.37890625,-12828.99609375,-20182.87890625,-20224.46484375,-20261.193359375,-10352.6474609375,-9687.4130859375,-9665.28515625,-11885.103515625,-10063.4111328125,-20222.279296875,-20280.7109375,-20203.72265625,-20255.978515625,-9072.154296875,-14730.8603515625,-15907.748046875,-11219.0927734375,-10918.9091796875,-10748.6611328125,-14193.8408203125,-10996.0615234375,-20164.849609375,-20332.482421875,-20202.9375,-20232.736328125,-13159.7578125,-8992.3896484375,-13405.7841796875,-12250.515625,4767.9994663649995
-9756.5302734375,-11838.46875,-13208.708984375,-12578.056640625,-20111.3046875,-20130.724609375,-19981.623046875,-10084.07421875,-9452.4921875,-9494.3564453125,-11624.0146484375,-9797.2900390625,-20150.5390625,-20193.544921875,-19910.61328125,-20076.025390625,-8695.369140625,-14425.2470703125,-15442.953125,-10967.423828125,-10674.4462890625,-10492.583984375,-13934.6884765625,-10707.318359375,-20092.365234375,-20120.91796875,-19951.8125,-19851.599609375,-12847.0830078125,-8638.89453125,-13086.158203125,-11995.8447265625,4768.001466365
-9074.3095703125,-11139.015625,-12555.990234375,-11873.9951171875,-19908.466796875,-19907.125,-19581.880859375,-9384.9482421875,-8758.85546875,-8777.955078125,-10927.89453125,-9102.3291015625,-19948.296875,-19977.814453125,-19505.12890625,-19781.185546875,-8049.23876953125,-13773.3662109375,-14855.1171875,-10265.095703125,-9976.705078125,-9806.7412109375,-13238.8916015625,-10028.654296875,-19889.42578125,-19790.064453125,-19585.484375,-19295.599609375,-12170.802734375,-7986.68603515625,-12407.3759765625,-11295.0869140625,4768.003466364999
-8569.1572265625,-10598.892578125,-12120.9833984375,-11326.642578125,-19751.689453125,-19738.47265625,-19336.865234375,-8864.60546875,-8206.4140625,-8139.13720703125,-10402.6376953125,-8584.0703125,-19792.001953125,-19814.91015625,-19265.712890625,-19584.541015625,-7694.83203125,-13339.9599609375,-14656.2822265625,-9723.28515625,-9430.4736328125,-9287.2626953125,-12709.5224609375,-9552.1484375,-19732.392578125,-19573.9453125,-19357.13671875,-18999.7421875,-11718.52734375,-7604.15087890625,-11959.9833984375,-10758.5654296875,4768.005466365
-9165.197265625,-11215.6064453125,-12719.7041015625,-11945.9580078125,-19929.447265625,-19917.427734375,-19568.228515625,-9483.9111328125,-8807.33984375,-8752.8701171875,-11017.65234375,-9197.3447265625,-19968.91015625,-19994.5078125,-19511.03125,-19789.77734375,-8287.984375,-13931.341796875,-15215.7744140625,-10339.203125,-10035.0263671875,-9893.2421875,-13325.76953125,-10160.197265625,-19909.935546875,-19783.10546875,-19581.1796875,-19301.771484375,-12329.775390625,-8201.0673828125,-12569.0673828125,-11374.93359375,4768.007466364999
-9678.912109375,-11759.994140625,-13158.8388671875,-12497.306640625,-20088.12109375,-20090.494140625,-19901.11328125,-10012.7421875,-9366.279296875,-9399.0087890625,-11549.4072265625,-9722.7099609375,-20127.443359375,-20163.578125,-19858.90625,-20032.591796875,-8650.7041015625,-14370.1845703125,-15423.6220703125,-10888.20703125,-10588.087890625,-10419.8779296875,-13857.880859375,-10646.837890625,-20069.73046875,-20051.1796875,-19885.787109375,-19798.724609375,-12786.96875,-8592.7998046875,-13022.828125,-11917.404296875,4768.009466365
-9459.1376953125,-11538.2802734375,-12902.89453125,-12277.0498046875,-20025.822265625,-20050.38671875,-20045.224609375,-9783.931640625,-9160.798828125,-9224.5634765625,-11325.2421875,-9495.37890625,-20065.556640625,-20116.267578125,-20002.826171875,-20074.044921875,-8370.64453125,-14124.3896484375,-15117.453125,-10670.26171875,-10375.7109375,-10202.25390625,-13631.404296875,-10408.513671875,-20008.173828125,-20128.685546875,-19997.025390625,-20005.92578125,-12532.68359375,-8322.6728515625,-12768.5751953125,-11695.6533203125,4768.011466365
-8812.421875,-10854.4267578125,-12288.0771484375,-11587.216796875,-19828.244140625,-19862.494140625,-19590.09375,-9110.8525390625,-8477.904296875,-8471.646484375,-10649.591796875,-8823.2060546875,-19867.724609375,-19919.8984375,-19469.599609375,-19766.728515625,-7828.60205078125,-13529.4814453125,-14714.3349609375,-9985.759765625,-9695.5224609375,-9536.1923828125,-12958.119140625,-9766.115234375,-19808.787109375,-19811.744140625,-19586.10546875,-19165.5703125,-11908.935546875,-7754.02099609375,-12153.7470703125,-11014.50390625,4768.013466365
-8597.9033203125,-10599.14453125,-12151.5009765625,-11323.2607421875,-19749.359375,-19689.974609375,-19018.65625,-8879.66015625,-8199.638671875,-8068.296875,-10408.443359375,-8593.134765625,-19789.392578125,-19776.73046875,-18963.421875,-19385.255859375,-7821.40576171875,-13403.2802734375,-14897.56640625,-9727.123046875,-9429.240234375,-9297.111328125,-12717.4296875,-9584.244140625,-19728.986328125,-19325.921875,-19075.845703125,-18692.45703125,-11769.505859375,-7701.15576171875,-12025.576171875,-10764.205078125,4768.015466365
-9424.1123046875,-11446.2626953125,-12981.029296875,-12174.5830078125,-19994.59375,-19994.208984375,-19791.05078125,-9728.53515625,-9027.3408203125,-8898.8701171875,-11254.4169921875,-9440.71875,-20034.181640625,-20077.580078125,-19763.3828125,-19968.408203125,-8654.8818359375,-14218.302734375,-15683.1533203125,-10571.998046875,-10266.1279296875,-10127.7080078125,-13564.060546875,-10422.494140625,-19975.03125,-19958.66796875,-19791.337890625,-19604.3515625,-12617.1005859375,-8534.65234375,-12872.4248046875,-11610.3037109375,4768.017466365
-10072.9248046875,-12139.8193359375,-13558.1513671875,-12877.02734375,-20197.07421875,-20238.134765625,-20275.91796875,-10399.97265625,-9735.5068359375,-9712.0546875,-11933.259765625,-10112.0048828125,-20236.287109375,-20294.46875,-20218.01953125,-20268.42578125,-9121.919921875,-14779.1748046875,-15956.6640625,-11267.462890625,-10967.7197265625,-10795.2724609375,-14243.193359375,-11043.9853515625,-20179.435546875,-20346.51171875,-20217.115234375,-20253.654296875,-13207.8076171875,-9039.9814453125,-13453.013671875,-12299.689453125,4768.019466365
-9795.0087890625,-11876.4482421875,-13246.162109375,-12616.6162109375,-20121.5703125,-20141.275390625,-19990.2734375,-10122.0869140625,-9489.64453125,-9528.91015625,-11662.2216796875,-9834.861328125,-20162.087890625,-20203.9921875,-19919.28515625,-20086.087890625,-8735.37890625,-14464.498046875,-15484.470703125,-11006.453125,-10711.00390625,-10528.9521484375,-13973.55859375,-10744.5576171875,-20103.767578125,-20130.119140625,-19960.408203125,-19858.91015625,-12887.4736328125,-8677.7255859375,-13125.2119140625,-12034.220703125,4768.0214663649995
-9099.353515625,-11161.9423828125,-12580.1328125,-11896.2666015625,-19915.263671875,-19913.509765625,-19587.220703125,-9406.142578125,-8780.99609375,-8797.5107421875,-10951.0703125,-9127.353515625,-19955.693359375,-19984.35546875,-19511.77734375,-19787.2265625,-8074.14404296875,-13798.8017578125,-14883.4423828125,-10289.291015625,-9999.4052734375,-9828.6181640625,-13261.9580078125,-10049.8837890625,-19896.296875,-19795.9296875,-19590.703125,-19300.34765625,-12197.6396484375,-8012.76904296875,-12433.759765625,-11318.8798828125,4768.023466365
-8580.7353515625,-10610.1728515625,-12132.453125,-11336.69921875,-19755.517578125,-19741.42578125,-19340.291015625,-8870.1103515625,-8216.544921875,-8145.89892578125,-10411.951171875,-8599.162109375,-19794.8203125,-19817.630859375,-19268.80078125,-19587.830078125,-7707.43212890625,-13351.951171875,-14671.80859375,-9734.630859375,-9441.314453125,-9296.65625,-12719.9765625,-9559.34375,-19735.400390625,-19576.853515625,-19359.7734375,-19002.908203125,-11731.2041015625,-7615.666015625,-11971.3212890625,-10769.2431640625,4768.025466364999
-9151.7802734375,-11200.390625,-12703.4619140625,-11930.4072265625,-19924.935546875,-19913.82421875,-19565.8984375,-9465.9765625,-8792.8486328125,-8737.0390625,-11002.505859375,-9185.2490234375,-19964.40625,-19989.814453125,-19507.560546875,-19786.71875,-8273.30078125,-13916.2041015625,-15201.0400390625,-10324.4306640625,-10021.3232421875,-9877.54296875,-13312.005859375,-10142.91796875,-19905.806640625,-19779.2734375,-19577.775390625,-19300.09375,-12315.654296875,-8185.5869140625,-12553.783203125,-11360.2548828125,4768.027466365
-9633.0068359375,-11713.1162109375,-13111.8759765625,-12451.3232421875,-20074.169921875,-20077.482421875,-19890.197265625,-9961.892578125,-9320.064453125,-9353.6181640625,-11503.8193359375,-9679.716796875,-20114.359375,-20150.5390625,-19847.861328125,-20020.443359375,-8603.9130859375,-14323.40625,-15376.55078125,-10841.6513671875,-10542.0517578125,-10374.70703125,-13812.8056640625,-10598.7431640625,-20055.736328125,-20039.12890625,-19874.33203125,-19788.494140625,-12742.0673828125,-8547.0244140625,-12976.083984375,-11871.3740234375,4768.029466364999
-9405.2236328125,-11484.0498046875,-12849.58203125,-12224.693359375,-20010.76171875,-20034.693359375,-20029.759765625,-9722.806640625,-9107.173828125,-9171.7548828125,-11270.9580078125,-9448.5029296875,-20050.408203125,-20101.81640625,-19985.1328125,-20058.109375,-8317.8427734375,-14070.5888671875,-15063.4013671875,-10616.755859375,-10321.728515625,-10147.9697265625,-13577.8779296875,-10353.626953125,-19993.171875,-20113.123046875,-19980.24609375,-19976.79296875,-12479.552734375,-8270.65625,-12715.0244140625,-11641.689453125,4768.031466365
-8780.84765625,-10821.7666015625,-12257.759765625,-11555.689453125,-19818.82421875,-19852.8125,-19563.86328125,-9066.4140625,-8445.623046875,-8437.5068359375,-10616.4716796875,-8802.650390625,-19858.69140625,-19910.9453125,-19438.25390625,-19745.828125,-7797.1640625,-13498.0888671875,-14684.822265625,-9954.3505859375,-9661.375,-9505.5361328125,-12925.9677734375,-9734.998046875,-19799.99609375,-19789.91796875,-19560.943359375,-19127.408203125,-11878.0517578125,-7724.09619140625,-12122.025390625,-10981.736328125,4768.033466365
-8615.3515625,-10614.7919921875,-12169.009765625,-11340.62109375,-19754.3984375,-19697.837890625,-19029.46484375,-8885.8095703125,-8214.673828125,-8081.26123046875,-10424.337890625,-8617.09375,-19793.630859375,-19784.564453125,-18974.37109375,-19394.28515625,-7838.15576171875,-13420.3447265625,-14916.9990234375,-9742.1279296875,-9442.5595703125,-9313.18359375,-12733.71875,-9600.3330078125,-19734.50390625,-19335.044921875,-19085.564453125,-18707.068359375,-11785.4306640625,-7718.9072265625,-12041.8203125,-10778.373046875,4768.035466365
-9470.658203125,-11490.6640625,-13024.7138671875,-12220.2568359375,-20007.6484375,-20011.4140625,-19822.080078125,-9767.875,-9071.751953125,-8941.8935546875,-11298.7607421875,-9491.0283203125,-20047.244140625,-20092.9296875,-19794.505859375,-19991.892578125,-8698.2734375,-14263.275390625,-15727.216796875,-10616.962890625,-10310.2109375,-10171.9267578125,-13607.751953125,-10466.1123046875,-19989.123046875,-19985.71875,-19821.38671875,-19644.078125,-12659.962890625,-8578.4033203125,-12916.08203125,-11654.0576171875,4768.037466365
-10117.431640625,-12180.947265625,-13599.4775390625,-12920.12109375,-20209.091796875,-20249.400390625,-20287.5078125,-10436.9873046875,-9776.560546875,-9751.7490234375,-11974.8173828125,-10157.76171875,-20248.77734375,-20306.078125,-20230.96875,-20280.240234375,-9161.61328125,-14821.4853515625,-15997.8447265625,-11309.279296875,-11009.8759765625,-10837.423828125,-14284.546875,-11083.90625,-20191.34375,-20358.525390625,-20229.00390625,-20271.29296875,-13248.771484375,-9080.478515625,-13493.8369140625,-12341.7021484375,4768.0394663649995
-9829.31640625,-11909.2900390625,-13278.7451171875,-12649.3525390625,-20131.41015625,-20150.271484375,-19997.64453125,-10151.740234375,-9521.134765625,-9558.966796875,-11694.8251953125,-9869.291015625,-20170.966796875,-20214.142578125,-19926.8984375,-20094.09375,-8767.7939453125,-14498.578125,-15517.8466796875,-11036.9697265625,-10745.841796875,-10560.8173828125,-14005.7138671875,-10776.46875,-20113.08203125,-20138.869140625,-19968.517578125,-19864.984375,-12917.8349609375,-8710.2734375,-13156.8798828125,-12065.6005859375,4768.041466365
-9116.296875,-11177.9677734375,-12597.23046875,-11912.802734375,-19919.876953125,-19918.298828125,-19590.390625,-9423.025390625,-8796.89453125,-8807.939453125,-10966.986328125,-9140.41015625,-19959.876953125,-19989.822265625,-19514.546875,-19791.00390625,-8092.158203125,-13816.513671875,-14903.9267578125,-10303.7666015625,-10015.3369140625,-9843.0546875,-13278.251953125,-10066.7744140625,-19900.49609375,-19799.919921875,-19594.73828125,-19303.75390625,-12211.1767578125,-8030.005859375,-12448.7353515625,-11333.82421875,4768.043466364999
-8584.3134765625,-10612.525390625,-12136.2197265625,-11339.3203125,-19755.943359375,-19741.9921875,-19340.955078125,-8874.384765625,-8219.6513671875,-8143.98291015625,-10414.3935546875,-8597.4833984375,-19795.1484375,-19818.33984375,-19270.1875,-19589.078125,-7711.26708984375,-13354.787109375,-14677.4326171875,-9735.66015625,-9442.21484375,-9297.755859375,-12722.494140625,-9562.947265625,-19736.12890625,-19578.041015625,-19361.162109375,-19004.955078125,-11732.3046875,-7619.90185546875,-11974.2275390625,-10771.7431640625,4768.045466365
-9137.5712890625,-11185.90625,-12688.2470703125,-11918.234375,-19921.373046875,-19909.845703125,-19563.341796875,-9450.6796875,-8778.4365234375,-8722.5322265625,-10988.6494140625,-9169.6787109375,-19960.318359375,-19986.16015625,-19504.87109375,-19783.36328125,-8256.31640625,-13900.35546875,-15182.337890625,-10309.12109375,-10006.3330078125,-9861.509765625,-13296.3701171875,-10127.8486328125,-19902.01953125,-19776.666015625,-19575.232421875,-19298.748046875,-12299.3359375,-8170.76611328125,-12538.12890625,-11346.5107421875,4768.047466364999
-9590.4033203125,-11669.90625,-13067.4287109375,-12409.9384765625,-20062.83203125,-20066.361328125,-19880.001953125,-9917.7412109375,-9277.09765625,-9311.6484375,-11460.791015625,-9637.2744140625,-20101.79296875,-20138.615234375,-19837.41015625,-20009.5625,-8559.392578125,-14279.771484375,-15329.4560546875,-10798.2177734375,-10499.2314453125,-10330.205078125,-13768.4287109375,-10555.2509765625,-20043.126953125,-20028.099609375,-19864.037109375,-19780.16015625,-12697.396484375,-8503.6748046875,-12932.078125,-11828.541015625,4768.049466365
-9355.2431640625,-11436.265625,-12800.1884765625,-12176.515625,-19997.193359375,-20021.154296875,-20014.857421875,-9675.3583984375,-9057.263671875,-9123.12890625,-11220.845703125,-9397.677734375,-20035.99609375,-20087.34375,-19968.99609375,-20043.78125,-8267.54296875,-14021.0419921875,-15014.30078125,-10566.751953125,-10272.7236328125,-10099.2998046875,-13529.2763671875,-10304.7900390625,-19978.6171875,-20099.05859375,-19965.861328125,-19950.599609375,-12430.32421875,-8220.29296875,-12664.9912109375,-11593.1982421875,4768.051466365
-8750.171875,-10793.4306640625,-12227.9736328125,-11526.48046875,-19810.365234375,-19843.279296875,-19536.94140625,-9041.0419921875,-8414.1259765625,-8406.9365234375,-10585.2880859375,-8768.37109375,-19849.71875,-19900.423828125,-19410.08984375,-19726.173828125,-7770.64599609375,-13467.728515625,-14659.2841796875,-9923.1953125,-9630.5224609375,-9474.3134765625,-12896.0048828125,-9705.1220703125,-19791.39453125,-19767.919921875,-19537.908203125,-19091.140625,-11848.7646484375,-7695.0830078125,-12092.0068359375,-10951.1640625,4768.053466365
-8617.748046875,-10618.265625,-12172.7060546875,-11342.9697265625,-19754.701171875,-19697.439453125,-19028.884765625,-8889.2841796875,-8216.0712890625,-8082.48779296875,-10426.0146484375,-8619.2568359375,-19794.83203125,-19782.37890625,-18974.0390625,-19392.51953125,-7843.72802734375,-13422.40625,-14921.94921875,-9744.37890625,-9445.5498046875,-9315.4423828125,-12736.60546875,-9601.9677734375,-19734.73828125,-19331.37890625,-19085.552734375,-18709.1171875,-11788.8505859375,-7722.47705078125,-12044.662109375,-10781.1181640625,4768.055466365
-9491.8837890625,-11513.56640625,-13047.232421875,-12242.283203125,-20014.060546875,-20020.1484375,-19840.048828125,-9788.4814453125,-9092.9521484375,-8963.1533203125,-11320.5908203125,-9512.8046875,-20053.681640625,-20099.7890625,-19810.845703125,-20003.427734375,-8720.181640625,-14284.455078125,-15748.1484375,-10639.17578125,-10332.7265625,-10193.4755859375,-13629.703125,-10486.765625,-19995.26953125,-19999.8125,-19837.615234375,-19665.38671875,-12682.4306640625,-8600.1103515625,-12937.4345703125,-11676.955078125,4768.0574663649995
-10134.7255859375,-12200.177734375,-13617.919921875,-12937.837890625,-20214.173828125,-20254.861328125,-20292.736328125,-10453.39453125,-9794.30859375,-9769.3369140625,-11993.662109375,-10176.7197265625,-20253.357421875,-20311.06640625,-20235.78515625,-20284.77734375,-9178.947265625,-14840.66015625,-16016.04296875,-11327.6181640625,-11027.6630859375,-10854.89453125,-14302.0830078125,-11101.10546875,-20197.154296875,-20362.380859375,-20233.41796875,-20277.568359375,-13266.0654296875,-9099.357421875,-13512.5146484375,-12360.4990234375,4768.059466365
-9841.6279296875,-11921.6630859375,-13290.6650390625,-12662.2607421875,-20135.171875,-20153.263671875,-19999.40625,-10159.251953125,-9532.7900390625,-9567.8505859375,-11706.625,-9884.5595703125,-20174.189453125,-20216.822265625,-19929.0234375,-20096.857421875,-8779.857421875,-14511.677734375,-15532.3759765625,-11050.470703125,-10757.0400390625,-10573.86328125,-14017.8046875,-10787.8974609375,-20116.814453125,-20140.58203125,-19970.345703125,-19864.994140625,-12929.84375,-8722.73046875,-13169.759765625,-12079.9765625,4768.061466364999
-9123.33203125,-11184.5029296875,-12604.2099609375,-11920.138671875,-19922.041015625,-19920.060546875,-19591.841796875,-9424.8369140625,-8802.03515625,-8812.0009765625,-10972.9072265625,-9152.1064453125,-19961.142578125,-19990.8828125,-19515.69921875,-19793.00390625,-8100.10009765625,-13823.8828125,-14913.84765625,-10310.837890625,-10021.76171875,-9851.0498046875,-13284.35546875,-10072.923828125,-19902.2734375,-19801.060546875,-19595.193359375,-19303.3984375,-12218.2353515625,-8036.68505859375,-12456.34765625,-11341.26171875,4768.063466365
-8587.654296875,-10615.9677734375,-12138.1083984375,-11343.89453125,-19756.640625,-19743.556640625,-19342.65625,-8875.6328125,-8220.63671875,-8145.298828125,-10417.3798828125,-8603.7080078125,-19795.912109375,-19819.28515625,-19271.390625,-19590.451171875,-7715.498046875,-13358.4599609375,-14683.427734375,-9738.20703125,-9444.7568359375,-9301.69921875,-12724.1845703125,-9563.634765625,-19736.84765625,-19579.052734375,-19362.1015625,-19005.212890625,-11736.2587890625,-7623.85009765625,-11978.310546875,-10774.2265625,4768.065466364999
-9129.849609375,-11180.0576171875,-12680.173828125,-11911.0908203125,-19919.498046875,-19908.04296875,-19562.55078125,-9440.3154296875,-8771.01171875,-8715.9853515625,-10980.1630859375,-9167.6015625,-19958.322265625,-19984.169921875,-19504.4609375,-19782.1484375,-8248.9033203125,-13892.5546875,-15172.5673828125,-10302.818359375,-9999.0078125,-9854.3662109375,-13288.3828125,-10119.486328125,-19899.75390625,-19775.763671875,-19574.8828125,-19299.28125,-12292.1806640625,-8161.4912109375,-12531.4736328125,-11339.4423828125,4768.067466365
-9566.3388671875,-11648.8837890625,-13045.2216796875,-12386.8271484375,-20056.265625,-20059.69140625,-19875.099609375,-9891.01171875,-9254.662109375,-9289.7080078125,-11437.3740234375,-9619.7919921875,-20096.044921875,-20132.41015625,-19832.8671875,-20003.892578125,-8535.7099609375,-14254.853515625,-15305.158203125,-10776.203125,-10476.513671875,-10306.490234375,-13745.4560546875,-10531.900390625,-20037.548828125,-20022.755859375,-19860.080078125,-19777.4140625,-12674.9306640625,-8478.5341796875,-12908.158203125,-11805.4287109375,4768.069466365
-9326.3818359375,-11408.6298828125,-12773.541015625,-12147.6787109375,-19988.79296875,-20013.3671875,-20005.939453125,-9642.4482421875,-9030.046875,-9096.4052734375,-11193.5166015625,-9375.771484375,-20027.96875,-20079.568359375,-19959.474609375,-20036.876953125,-8241.7333984375,-13993.9287109375,-14988.3251953125,-10540.3837890625,-10245.650390625,-10071.2373046875,-13500.7021484375,-10275.783203125,-19971.3203125,-20092.083984375,-19957.98828125,-19934.87890625,-12403.6904296875,-8191.39990234375,-12637.658203125,-11565.416015625,4768.071466365
