P7,P4,Cz,Pz,P3,P8,O1,O2,T8,F8,C4,F4,Fp2,Fz,C3,F3,Fp1,T7,F7,Oz,PO3,AF3,FC5,FC1,CP5,CP1,CP2,CP6,AF4,FC2,FC6,PO4,Timestamp

-31522.234375,14530.4560546875,22153.681640625,2500.175048828125,25325.337890625,-6442.69091796875,-59400.26953125,-56484.4453125,22152.904296875,-3035.248046875,7771.65283203125,18243.408203125,-25196.75390625,44753.0234375,-330576.0625,19041.205078125,10108.3818359375,-34534.82421875,965.9849853515625,-5511.74609375,37266.44921875,16273.80078125,25967.59375,-23344.314453125,-1924.89404296875,35153.984375,-372989.9375,15462.859375,36242.03125,-37934.546875,14915.779296875,-5349.6728515625,11059.137466365
-31522.96484375,14527.896484375,22167.384765625,2497.27392578125,25324.796875,-6439.97802734375,-59401.05078125,-56485.921875,22157.0546875,-3016.486083984375,7770.8017578125,18269.09375,-25166.435546875,44780.2734375,-330578.8125,19047.515625,10111.8662109375,-34529.6953125,999.3319702148438,-5514.39013671875,37275.8203125,16294.77734375,25976.224609375,-23311.173828125,-1923.1529541015625,35158.21484375,-372992.03125,15470.6494140625,36263.4609375,-37932.15625,14939.337890625,-5345.455078125,11059.139466364999
-31512.126953125,14534.81640625,22209.625,2496.4130859375,25342.30078125,-6414.11181640625,-59390.15234375,-56470.8671875,22175.50390625,-2963.363037109375,7778.35009765625,18292.9921875,-25206.0234375,44766.2421875,-330561.71875,19055.359375,10009.193359375,-34519.79296875,992.5430297851562,-5501.494140625,37278.9140625,16299.037109375,25917.517578125,-23298.8359375,-1895.41796875,35170.43359375,-372971.71875,15482.1171875,36267.11328125,-37897.94140625,14923.8203125,-5310.2578125,11059.141466365
-31510.45703125,14535.591796875,22221.046875,2495.382080078125,25348.673828125,-6406.07421875,-59386.97265625,-56466.41796875,22178.228515625,-2947.1298828125,7779.47607421875,18285.09375,-25255.08984375,44735.4453125,-330557.0,19049.736328125,9949.365234375,-34523.69140625,957.8690185546875,-5500.5341796875,37268.51171875,16284.8623046875,25876.25390625,-23318.474609375,-1885.0469970703125,35169.01171875,-372966.84375,15479.2783203125,36248.8046875,-37885.54296875,14893.134765625,-5297.27099609375,11059.143466365
-31507.177734375,14540.8916015625,22206.478515625,2503.31298828125,25349.392578125,-6408.39794921875,-59382.22265625,-56464.1953125,22174.01171875,-2964.405029296875,7784.52685546875,18268.1796875,-25267.205078125,44721.43359375,-330559.28125,19045.814453125,9962.3134765625,-34527.2421875,932.7839965820312,-5503.82177734375,37265.87890625,16275.4638671875,25884.6640625,-23339.033203125,-1887.22900390625,35169.22265625,-372969.21875,15476.38671875,36235.9765625,-37891.12890625,14879.28125,-5301.2587890625,11059.145466365
-31528.3125,14524.9931640625,22161.8359375,2490.027099609375,25323.80859375,-6440.623046875,-59402.52734375,-56487.09375,22149.259765625,-3014.06103515625,7766.92578125,18238.287109375,-25252.392578125,44719.20703125,-330590.25,19023.001953125,10015.3876953125,-34548.2734375,922.3250122070312,-5534.01611328125,37252.28125,16262.6953125,25914.529296875,-23358.626953125,-1919.8990478515625,35146.68359375,-373002.59375,15456.591796875,36221.16015625,-37929.2734375,14875.84375,-5339.33984375,11059.147466365
-31532.392578125,14518.2099609375,22172.451171875,2482.132080078125,25322.5703125,-6439.546875,-59406.5625,-56489.03515625,22151.689453125,-2996.593017578125,7762.03515625,18252.546875,-25241.798828125,44729.9296875,-330594.78125,19022.474609375,10008.5771484375,-34550.28125,939.6719970703125,-5540.47705078125,37249.32421875,16269.76171875,25911.126953125,-23340.98828125,-1918.115966796875,35143.37109375,-373006.03125,15456.3232421875,36229.0703125,-37926.0,14883.5732421875,-5335.4501953125,11059.149466365
-31505.88671875,14542.2880859375,22225.01953125,2501.802978515625,25356.025390625,-6397.99609375,-59377.73046875,-56458.4375,22183.16796875,-2935.02294921875,7786.3349609375,18285.587890625,-25264.255859375,44730.953125,-330560.25,19043.18359375,9939.966796875,-34526.4609375,946.97802734375,-5511.47607421875,37264.2890625,16286.4404296875,25877.181640625,-23320.951171875,-1874.7889404296875,35167.6640625,-372969.75,15480.1025390625,36242.92578125,-37875.5078125,14883.2099609375,-5286.1572265625,11059.151466365
-31505.419921875,14543.2861328125,22219.67578125,2501.73388671875,25356.841796875,-6397.8818359375,-59376.01171875,-56455.953125,22179.443359375,-2940.31005859375,7787.72900390625,18268.6875,-25295.57421875,44707.28515625,-330560.625,19035.0859375,9920.068359375,-34531.6328125,917.3350219726562,-5513.8837890625,37256.57421875,16272.6142578125,25861.765625,-23345.232421875,-1872.781982421875,35164.34375,-372971.0625,15473.9384765625,36224.63671875,-37873.55078125,14861.1123046875,-5283.14501953125,11059.153466365
-31515.39453125,14537.099609375,22182.703125,2498.875,25342.1796875,-6420.18896484375,-59387.07421875,-56468.43359375,22161.86328125,-2984.714111328125,7780.826171875,18241.78125,-25278.845703125,44704.26953125,-330581.0,19021.716796875,9980.568359375,-34546.390625,908.97998046875,-5532.89990234375,37250.75390625,16262.0126953125,25894.59765625,-23364.17578125,-1895.115966796875,35152.12890625,-372993.78125,15460.4990234375,36214.953125,-37901.60546875,14860.0390625,-5310.92919921875,11059.155466365
-31534.59375,14523.978515625,22134.28515625,2491.264892578125,25315.439453125,-6455.77880859375,-59406.8359375,-56492.13671875,22135.89453125,-3042.31298828125,7763.25,18220.353515625,-25229.814453125,44723.19140625,-330613.90625,19005.486328125,10065.5126953125,-34563.1953125,921.60498046875,-5561.40380859375,37245.34375,16260.181640625,25948.634765625,-23368.357421875,-1932.2979736328125,35137.1484375,-373028.8125,15442.7177734375,36215.3359375,-37947.2578125,14878.76953125,-5356.7939453125,11059.157466364999
-31543.61328125,14512.1259765625,22138.2109375,2478.830078125,25305.814453125,-6462.51513671875,-59417.3828125,-56502.546875,22132.232421875,-3032.80908203125,7752.28076171875,18241.07421875,-25197.68359375,44748.6875,-330626.96875,19004.978515625,10071.7041015625,-34565.6484375,954.0479736328125,-5574.56494140625,37244.1953125,16273.943359375,25956.322265625,-23341.814453125,-1940.1639404296875,35133.078125,-373042.46875,15441.15625,36230.98828125,-37954.140625,14899.05859375,-5362.44580078125,11059.159466365
-31520.75390625,14529.01953125,22192.34765625,2490.9169921875,25334.673828125,-6426.2822265625,-59394.140625,-56476.484375,22162.732421875,-2968.514892578125,7771.951171875,18279.02734375,-25219.205078125,44752.59375,-330598.15625,19025.310546875,9985.0478515625,-34542.18359375,968.4429931640625,-5551.076171875,37258.68359375,16292.5107421875,25912.384765625,-23315.21484375,-1902.1419677734375,35158.01171875,-373011.03125,15465.078125,36251.08984375,-37908.9296875,14900.998046875,-5316.2880859375,11059.161466365
-31509.787109375,14538.6953125,22213.751953125,2498.14990234375,25348.998046875,-6407.81201171875,-59381.91015625,-56462.796875,22174.65234375,-2943.422119140625,7782.31591796875,18282.767578125,-25263.927734375,44729.1953125,-330584.4375,19028.830078125,9922.236328125,-34536.5703125,943.958984375,-5540.27783203125,37260.109375,16288.134765625,25874.353515625,-23327.49609375,-1882.48095703125,35166.74609375,-372995.15625,15472.763671875,36242.4453125,-37885.73828125,14878.05078125,-5292.39697265625,11059.163466365
-31511.02734375,14541.7607421875,22195.626953125,2501.9140625,25346.376953125,-6414.16796875,-59381.05859375,-56463.59375,22166.763671875,-2963.69091796875,7783.615234375,18262.388671875,-25282.18359375,44711.78515625,-330591.125,19021.849609375,9933.48046875,-34544.87890625,917.4929809570312,-5545.919921875,37254.49609375,16273.921875,25878.6953125,-23352.728515625,-1888.470947265625,35162.34765625,-373002.75,15466.4404296875,36226.82421875,-37895.703125,14859.935546875,-5301.07177734375,11059.165466365
-31525.603515625,14532.27734375,22158.732421875,2497.294921875,25327.466796875,-6439.0908203125,-59392.9375,-56479.28515625,22148.123046875,-3004.40087890625,7773.8740234375,18239.88671875,-25261.19921875,44717.0,-330613.90625,19009.150390625,9993.4580078125,-34560.33203125,915.2009887695312,-5566.98583984375,37246.05078125,16265.060546875,25912.72265625,-23365.98046875,-1913.5880126953125,35149.15625,-373027.5,15452.7880859375,36218.9140625,-37927.26953125,14860.783203125,-5333.330078125,11059.167466365
-31530.533203125,14526.36328125,22170.806640625,2488.81298828125,25325.767578125,-6437.412109375,-59397.1953125,-56482.21875,22149.373046875,-2987.387939453125,7769.39990234375,18254.056640625,-25249.865234375,44727.13671875,-330617.0,19009.931640625,9986.998046875,-34560.3984375,932.8590087890625,-5572.05078125,37244.8359375,16271.736328125,25909.154296875,-23347.43359375,-1911.81201171875,35147.921875,-373030.4375,15453.91015625,36226.69921875,-37922.93359375,14867.4189453125,-5329.19921875,11059.169466365
-31523.658203125,14528.93359375,22202.19140625,2485.169921875,25338.009765625,-6419.73681640625,-59391.97265625,-56471.62109375,22161.43359375,-2946.51708984375,7772.48779296875,18267.27734375,-25287.900390625,44711.38671875,-330604.6875,19012.12890625,9908.0966796875,-34556.80859375,923.47900390625,-5563.89501953125,37240.37890625,16269.6162109375,25860.4375,-23343.638671875,-1889.6829833984375,35153.57421875,-373014.96875,15458.5302734375,36223.4296875,-37896.65234375,14849.63671875,-5299.85693359375,11059.171466365
-31516.837890625,14536.2880859375,22204.81640625,2492.759033203125,25347.1484375,-6412.63916015625,-59382.66015625,-56462.74609375,22165.400390625,-2944.131103515625,7780.55078125,18257.462890625,-25309.5078125,44697.87890625,-330599.34375,19013.1484375,9894.80859375,-34554.7578125,904.9010009765625,-5558.5048828125,37239.40234375,16262.4306640625,25853.375,-23358.318359375,-1879.112060546875,35158.82421875,-373008.53125,15461.861328125,36214.67578125,-37888.35546875,14835.87890625,-5289.7138671875,11059.173466365
-31526.298828125,14532.6298828125,22171.158203125,2493.68701171875,25334.28515625,-6430.77099609375,-59389.53125,-56472.875,22148.755859375,-2985.865966796875,7775.26806640625,18231.404296875,-25294.744140625,44697.20703125,-330615.3125,19004.21484375,9950.21484375,-34566.078125,896.4290161132812,-5573.43798828125,37233.3203125,16255.39453125,25885.830078125,-23376.357421875,-1898.22900390625,35151.203125,-373028.71875,15451.525390625,36205.17578125,-37914.49609375,14834.8642578125,-5314.1318359375,11059.175466364999
-31550.3359375,14516.03515625,22119.412109375,2482.89794921875,25304.796875,-6471.1220703125,-59412.6171875,-56500.328125,22120.60546875,-3048.12890625,7755.119140625,18205.45703125,-25252.96875,44712.10546875,-330652.40625,18986.578125,10036.33984375,-34586.90234375,908.7550048828125,-5606.07080078125,37226.484375,16250.94140625,25936.71484375,-23383.916015625,-1939.6529541015625,35130.89453125,-373069.46875,15432.099609375,36203.328125,-37962.31640625,14849.91796875,-5363.3720703125,11059.177466365
-31546.373046875,14515.5732421875,22134.91015625,2482.3701171875,25307.408203125,-6467.16796875,-59411.71484375,-56499.15234375,22129.28515625,-3026.757080078125,7755.0849609375,18235.421875,-25213.029296875,44746.234375,-330653.03125,18999.267578125,10053.6748046875,-34577.203125,954.177001953125,-5607.40283203125,37239.71484375,16277.1171875,25957.3671875,-23344.529296875,-1936.9530029296875,35138.15625,-373069.0625,15443.7490234375,36232.2578125,-37958.56640625,14883.451171875,-5357.85107421875,11059.179466365
-31523.318359375,14532.021484375,22189.294921875,2492.77490234375,25335.017578125,-6431.19580078125,-59390.84765625,-56474.02734375,22157.509765625,-2965.681884765625,7774.208984375,18272.5234375,-25238.83984375,44750.015625,-330625.75,19021.796875,9965.076171875,-34554.25390625,965.0819702148438,-5583.3349609375,37252.4140625,16294.9267578125,25913.53125,-23320.1015625,-1899.501953125,35160.84765625,-373040.09375,15467.99609375,36250.76171875,-37915.6328125,14885.35546875,-5313.23681640625,11059.181466365
-31512.72265625,14542.5,22212.419921875,2499.50390625,25351.47265625,-6412.52880859375,-59379.23828125,-56458.7109375,22169.060546875,-2941.06201171875,7785.16015625,18276.150390625,-25280.060546875,44728.125,-330611.90625,19028.55078125,9908.2216796875,-34548.2109375,941.4520263671875,-5570.2177734375,37254.15234375,16290.470703125,25877.892578125,-23330.94921875,-1878.9830322265625,35169.69921875,-373023.5625,15475.845703125,36242.94140625,-37892.875,14864.6748046875,-5289.09521484375,11059.183466365
-31511.3359375,14548.9013671875,22199.259765625,2508.08203125,25352.57421875,-6415.48095703125,-59375.58203125,-56456.01171875,22165.212890625,-2957.885009765625,7788.89990234375,18258.294921875,-25296.486328125,44711.8828125,-330614.28125,19025.716796875,9918.8603515625,-34551.6640625,917.7130126953125,-5570.15283203125,37252.63671875,16280.1064453125,25881.03515625,-23351.759765625,-1879.9610595703125,35169.2890625,-373026.46875,15472.603515625,36228.77734375,-37899.10546875,14848.720703125,-5293.59521484375,11059.185466365
-31528.37109375,14537.2392578125,22160.736328125,2499.846923828125,25331.287109375,-6443.35498046875,-59390.68359375,-56474.2265625,22145.154296875,-3002.25390625,7776.14208984375,18232.404296875,-25279.91796875,44711.28125,-330639.75,19009.13671875,9976.3388671875,-34568.71875,908.2689819335938,-5593.43603515625,37244.22265625,16267.9951171875,25912.19921875,-23367.005859375,-1907.425048828125,35152.9453125,-373054.53125,15455.181640625,36217.20703125,-37932.921875,14845.2958984375,-5327.90576171875,11059.187466365
-31533.64453125,14530.0810546875,22170.39453125,2489.365966796875,25327.556640625,-6443.451171875,-59397.86328125,-56478.9296875,22145.373046875,-2986.64208984375,7769.3701171875,18244.806640625,-25268.27734375,44720.6328125,-330646.1875,19006.84765625,9971.322265625,-34571.078125,921.0989990234375,-5601.1171875,37240.2890625,16273.65234375,25911.17578125,-23350.966796875,-1907.9300537109375,35147.90625,-373058.875,15453.5712890625,36221.7109375,-37930.33984375,14850.9306640625,-5325.53076171875,11059.189466365
-31515.001953125,14543.51171875,22216.197265625,2497.6201171875,25351.427734375,-6412.68017578125,-59379.34765625,-56458.4375,22169.0,-2932.98388671875,7785.88720703125,18272.365234375,-25293.39453125,44717.609375,-330623.15625,19021.46875,9904.53125,-34554.890625,922.510986328125,-5580.93994140625,37246.22265625,16283.87890625,25875.158203125,-23337.427734375,-1874.7509765625,35162.42578125,-373031.6875,15469.2490234375,36229.6015625,-37891.3046875,14845.4189453125,-5284.19580078125,11059.191466365
-31509.1484375,14551.3671875,22218.544921875,2504.587890625,25359.330078125,-6404.7880859375,-59372.46875,-56450.76953125,22171.92578125,-2933.8359375,7792.31201171875,18262.11328125,-25319.064453125,44701.0546875,-330616.875,19021.533203125,9889.2451171875,-34554.09765625,900.4429931640625,-5575.58203125,37243.984375,16276.1572265625,25865.333984375,-23356.373046875,-1865.04296875,35164.48046875,-373026.90625,15469.916015625,36219.41015625,-37882.1953125,14831.9140625,-5275.08984375,11059.193466364999
-31510.509765625,14557.18359375,22193.93359375,2514.465087890625,25355.376953125,-6416.046875,-59370.05078125,-56452.18359375,22162.703125,-2969.222900390625,7794.58984375,18242.615234375,-25298.81640625,44706.44921875,-330625.78125,19018.6953125,9952.736328125,-34557.66796875,897.5670166015625,-5581.966796875,37245.57421875,16274.103515625,25904.478515625,-23366.52734375,-1876.5699462890625,35161.21484375,-373037.90625,15468.3203125,36218.73046875,-37900.02734375,14839.1416015625,-5291.9912109375,11059.195466365
-31531.822265625,14540.6337890625,22141.935546875,2502.637939453125,25325.23828125,-6455.22998046875,-59393.00390625,-56479.3359375,22133.880859375,-3031.5380859375,7775.24609375,18214.203125,-25261.955078125,44718.93359375,-330663.21875,19000.20703125,10033.0244140625,-34578.14453125,905.9110107421875,-5614.7041015625,37236.0390625,16265.8818359375,25950.95703125,-23375.486328125,-1918.762939453125,35139.19140625,-373077.78125,15448.005859375,36215.3515625,-37949.51953125,14851.1171875,-5340.3837890625,11059.197466365
-31533.90625,14536.0244140625,22154.765625,2497.02099609375,25324.443359375,-6455.01806640625,-59397.0390625,-56482.94140625,22136.939453125,-3017.64404296875,7771.31689453125,18239.328125,-25224.212890625,44748.98046875,-330667.96875,19007.646484375,10051.1162109375,-34572.296875,948.9650268554688,-5619.52197265625,37244.234375,16286.427734375,25967.720703125,-23341.517578125,-1919.4110107421875,35142.47265625,-373082.34375,15454.328125,36240.359375,-37948.94140625,14880.9287109375,-5340.6318359375,11059.199466365
-31518.84765625,14546.4287109375,22203.642578125,2500.97412109375,25345.080078125,-6425.65576171875,-59382.55859375,-56463.7734375,22160.3125,-2962.8740234375,7782.1572265625,18270.693359375,-25253.423828125,44746.015625,-330646.3125,19022.62109375,9958.6845703125,-34555.0078125,954.7830200195312,-5601.14404296875,37252.8125,16298.4814453125,25916.890625,-23323.39453125,-1887.176025390625,35158.61328125,-373057.40625,15472.2197265625,36252.078125,-37911.46484375,14878.4287109375,-5301.2001953125,11059.201466364999
-31518.328125,14546.5419921875,22216.017578125,2497.873046875,25349.662109375,-6418.08984375,-59379.98046875,-56459.37890625,22163.224609375,-2947.64892578125,7782.5390625,18264.03125,-25301.16796875,44715.70703125,-330642.75,19017.396484375,9897.64453125,-34556.90625,923.4710083007812,-5598.97412109375,37243.890625,16283.1552734375,25875.443359375,-23341.150390625,-1877.510009765625,35157.3828125,-373051.125,15469.982421875,36236.5546875,-37900.07421875,14851.18359375,-5287.44287109375,11059.203466365
-31515.61328125,14553.98046875,22205.794921875,2507.7060546875,25354.033203125,-6419.1181640625,-59373.453125,-56454.55078125,22161.365234375,-2962.64111328125,7789.4140625,18247.9296875,-25310.5234375,44704.921875,-330642.8125,19015.76953125,9913.7568359375,-34558.11328125,900.6500244140625,-5598.7509765625,37243.78515625,16275.0986328125,25883.900390625,-23358.171875,-1876.91796875,35158.30859375,-373052.25,15468.298828125,36227.1171875,-37903.6953125,14841.4892578125,-5290.251953125,11059.205466365
-31530.71484375,14544.416015625,22170.279296875,2502.387939453125,25333.955078125,-6444.9140625,-59387.1015625,-56471.0703125,22141.814453125,-3004.909912109375,7777.884765625,18223.00390625,-25290.794921875,44706.7578125,-330666.4375,19001.40625,9968.3310546875,-34573.28515625,893.7410278320312,-5620.3359375,37236.765625,16266.173828125,25915.859375,-23371.748046875,-1902.8929443359375,35142.4296875,-373079.3125,15452.9306640625,36218.39453125,-37935.515625,14842.3359375,-5322.18505859375,11059.207466365
-31538.642578125,14535.3046875,22176.173828125,2487.7451171875,25326.291015625,-6447.89794921875,-59396.73046875,-56477.765625,22139.0546875,-2992.89111328125,7767.1328125,18232.015625,-25281.369140625,44716.15234375,-330675.34375,18998.228515625,9964.271484375,-34578.07421875,909.416015625,-5628.52880859375,37233.9140625,16269.3359375,25912.11328125,-23357.875,-1906.178955078125,35134.86328125,-373087.875,15448.3017578125,36222.88671875,-37937.65234375,14847.3857421875,-5323.287109375,11059.209466365
-31518.197265625,14550.5400390625,22224.169921875,2497.426025390625,25353.419921875,-6414.42578125,-59377.0390625,-56454.89453125,22166.755859375,-2939.035888671875,7784.6171875,18260.767578125,-25300.26953125,44716.40234375,-330649.40625,19017.06640625,9904.326171875,-34559.90625,919.0089721679688,-5606.96923828125,37247.34375,16281.8916015625,25880.474609375,-23339.5234375,-1871.1529541015625,35151.984375,-373059.40625,15467.0546875,36234.75390625,-37897.03515625,14846.1240234375,-5281.26513671875,11059.211466364999
-31515.837890625,14553.0966796875,22223.6171875,2499.294921875,25356.53125,-6411.43603515625,-59372.76953125,-56451.640625,22167.0703125,-2941.14111328125,7787.873046875,18248.279296875,-25321.646484375,44698.9453125,-330648.875,19014.7265625,9892.1982421875,-34561.67578125,899.9959716796875,-5607.009765625,37244.4921875,16270.9931640625,25869.869140625,-23356.474609375,-1866.39599609375,35152.19921875,-373057.84375,15465.0361328125,36223.28125,-37893.01953125,14831.1796875,-5275.708984375,11059.213466365
-31532.974609375,14541.6015625,22184.72265625,2491.218017578125,25335.35546875,-6438.3828125,-59388.3203125,-56470.74609375,22144.658203125,-2989.736083984375,7773.908203125,18216.16796875,-25308.138671875,44693.2890625,-330676.3125,18998.970703125,9947.734375,-34578.71484375,889.0819702148438,-5629.5029296875,37234.5390625,16257.703125,25897.83203125,-23378.7890625,-1894.02294921875,35136.85546875,-373085.78125,15447.330078125,36209.5703125,-37925.4609375,14826.34375,-5309.541015625,11059.215466365
-31553.248046875,14526.5263671875,22135.9921875,2482.029052734375,25307.6953125,-6476.85107421875,-59409.4140625,-56495.9296875,22117.87890625,-3048.62109375,7755.716796875,18192.310546875,-25260.791015625,44711.03125,-330710.78125,18984.31640625,10030.23828125,-34593.71484375,905.8079833984375,-5659.4208984375,37229.85546875,16254.736328125,25950.171875,-23380.990234375,-1933.4019775390625,35119.796875,-373124.0,15432.201171875,36209.97265625,-37972.203125,14843.9033203125,-5357.52392578125,11059.217466365
-31550.759765625,14525.791015625,22152.28515625,2479.56298828125,25308.9921875,-6475.0068359375,-59409.60546875,-56495.80859375,22125.6015625,-3031.306884765625,7754.8671875,18220.26953125,-25221.953125,44743.98828125,-330711.96875,18994.62109375,10041.455078125,-34584.61328125,950.2169799804688,-5662.99609375,37240.98046875,16276.84765625,25964.576171875,-23344.283203125,-1932.64599609375,35128.1015625,-373125.75,15443.904296875,36237.69921875,-37969.1171875,14875.6953125,-5353.57421875,11059.219466364999
-31534.21484375,14537.3291015625,22203.083984375,2484.551025390625,25330.91015625,-6444.31689453125,-59394.390625,-56475.5,22150.64453125,-2975.136962890625,7766.89599609375,18252.849609375,-25253.169921875,44739.828125,-330689.78125,19011.095703125,9945.02734375,-34565.19140625,956.0599975585938,-5644.0380859375,37250.82421875,16288.8115234375,25912.40625,-23325.732421875,-1899.10205078125,35146.70703125,-373100.625,15463.525390625,36250.40625,-37929.88671875,14871.7392578125,-5313.1650390625,11059.221466365
-31527.638671875,14541.150390625,22221.7109375,2485.9130859375,25341.5078125,-6429.43310546875,-59387.1015625,-56465.75390625,22159.197265625,-2953.419921875,7773.16015625,18251.580078125,-25301.23046875,44712.4453125,-330680.84375,19011.23046875,9884.466796875,-34561.05859375,926.7930297851562,-5635.421875,37246.9375,16280.6943359375,25873.322265625,-23342.30078125,-1883.8179931640625,35151.92578125,-373089.90625,15465.275390625,36239.28125,-37911.8828125,14845.11328125,-5294.72412109375,11059.223466365
-31530.943359375,14542.501953125,22205.5703125,2489.821044921875,25337.453125,-6434.93603515625,-59387.01953125,-56466.7421875,22153.896484375,-2972.547119140625,7772.6279296875,18229.21484375,-25322.0078125,44694.51171875,-330687.28125,19004.201171875,9894.271484375,-34567.546875,898.7130126953125,-5640.837890625,37241.8828125,16266.947265625,25875.130859375,-23370.513671875,-1890.0999755859375,35149.84765625,-373097.59375,15457.4443359375,36221.765625,-37921.05859375,14827.396484375,-5302.07177734375,11059.225466365
-31557.453125,14522.6171875,22157.951171875,2474.345947265625,25308.4296875,-6470.2138671875,-59410.27734375,-56493.4296875,22127.0859375,-3023.972900390625,7750.80712890625,18195.41015625,-25313.365234375,44689.34765625,-330722.09375,18980.765625,9949.09765625,-34592.74609375,884.2000122070312,-5671.841796875,37225.875,16250.4140625,25901.046875,-23392.615234375,-1926.509033203125,35128.08984375,-373135.375,15432.65625,36203.72265625,-37963.30859375,14818.9833984375,-5344.80810546875,11059.227466365
-31558.30078125,14520.779296875,22172.2265625,2468.9208984375,25309.994140625,-6466.4580078125,-59411.00390625,-56492.84375,22133.2578125,-3004.760986328125,7749.64501953125,18211.107421875,-25298.537109375,44703.26171875,-330723.25,18982.962890625,9944.7509765625,-34590.34375,902.1019897460938,-5673.01318359375,37228.5625,16261.251953125,25900.18359375,-23371.546875,-1921.8699951171875,35131.9375,-373133.78125,15436.984375,36214.4921875,-37956.1875,14830.1982421875,-5337.15380859375,11059.229466365
-31545.806640625,14528.7158203125,22211.029296875,2471.76806640625,25328.435546875,-6440.47900390625,-59399.98046875,-56477.58984375,22151.61328125,-2957.535888671875,7759.578125,18231.216796875,-25326.509765625,44692.5,-330704.375,18992.18359375,9868.9267578125,-34579.81640625,897.177001953125,-5659.02783203125,37230.3828125,16265.1318359375,25854.3671875,-23363.400390625,-1893.6429443359375,35147.203125,-373112.15625,15447.880859375,36216.60546875,-37922.046875,14820.32421875,-5302.3701171875,11059.231466365
-31536.826171875,14537.412109375,22216.71875,2480.06298828125,25337.435546875,-6431.19384765625,-59390.6953125,-56467.44140625,22156.54296875,-2953.674072265625,7767.51806640625,18224.125,-25345.291015625,44677.78515625,-330695.96875,18994.345703125,9857.32421875,-34576.21484375,877.4329833984375,-5651.1689453125,37230.00390625,16258.6953125,25846.634765625,-23377.427734375,-1882.2340087890625,35155.98828125,-373104.03125,15449.5009765625,36207.99609375,-37912.68359375,14807.7021484375,-5290.4482421875,11059.233466365
-31543.0234375,14535.37109375,22185.728515625,2482.7080078125,25326.8203125,-6447.9521484375,-59394.46875,-56475.08984375,22144.11328125,-2992.60009765625,7764.90380859375,18203.0390625,-25323.716796875,44681.1875,-330711.34375,18987.01953125,9923.2216796875,-34581.50390625,872.8909912109375,-5662.09814453125,37228.5859375,16253.3837890625,25885.640625,-23389.923828125,-1899.302001953125,35152.5703125,-373122.0,15440.544921875,36201.34375,-37934.57421875,14810.8681640625,-5314.791015625,11059.235466365
-31564.2109375,14518.1884765625,22136.8125,2471.5400390625,25298.4453125,-6487.048828125,-59415.10546875,-56500.4296875,22116.951171875,-3051.989990234375,7747.380859375,18179.513671875,-25276.81640625,44699.62890625,-330747.4375,18970.81640625,10009.9970703125,-34598.12109375,887.8380126953125,-5693.2451171875,37223.97265625,16250.1533203125,25939.962890625,-23394.3046875,-1939.2130126953125,35136.29296875,-373161.71875,15425.1064453125,36201.328125,-37981.36328125,14829.076171875,-5362.73193359375,11059.237466364999
-31571.220703125,14508.2138671875,22142.888671875,2459.6689453125,25288.966796875,-6495.259765625,-59427.1484375,-56511.6640625,22114.9375,-3040.626953125,7736.2900390625,18201.990234375,-25238.3515625,44730.0234375,-330758.40625,18974.53125,10031.6328125,-34596.8203125,928.1849975585938,-5706.203125,37227.69140625,16268.0439453125,25958.1015625,-23360.068359375,-1948.39794921875,35136.65234375,-373174.0,15428.150390625,36224.63671875,-37986.984375,14859.2607421875,-5369.26708984375,11059.239466365
-31553.72265625,14519.578125,22195.42578125,2464.93310546875,25312.09375,-6463.8349609375,-59412.06640625,-56491.9453125,22141.48046875,-2979.218994140625,7749.048828125,18240.88671875,-25258.4609375,44736.48828125,-330737.53125,18993.40234375,9950.71484375,-34575.91796875,943.6920166015625,-5685.89111328125,37241.26171875,16286.6103515625,25918.345703125,-23332.00390625,-1915.698974609375,35158.62890625,-373150.25,15450.0498046875,36244.37890625,-37947.6640625,14866.10546875,-5330.080078125,11059.241466365
-31539.99609375,14529.830078125,22221.115234375,2473.35205078125,25328.14453125,-6443.7099609375,-59397.86328125,-56476.328125,22156.546875,-2950.343017578125,7761.30908203125,18249.33203125,-25295.89453125,44719.33203125,-330721.96875,19001.541015625,9894.8662109375,-34565.02734375,923.083984375,-5670.8662109375,37247.9921875,16286.38671875,25886.44921875,-23337.474609375,-1893.9449462890625,35173.60546875,-373133.21875,15460.103515625,36242.62109375,-37923.33203125,14849.7236328125,-5303.134765625,11059.243466365
-31533.1875,14541.10546875,22213.73046875,2485.970947265625,25335.01953125,-6441.18212890625,-59388.76171875,-56468.125,22158.427734375,-2961.0380859375,7770.0849609375,18236.408203125,-25311.005859375,44707.13671875,-330720.03125,19002.78125,9900.099609375,-34562.6171875,900.3040161132812,-5667.77685546875,37251.5625,16279.2802734375,25888.544921875,-23354.66796875,-1890.6219482421875,35182.03125,-373130.0625,15460.703125,36231.96875,-37923.453125,14838.2216796875,-5300.92578125,11059.245466365
-31547.125,14534.69140625,22178.259765625,2482.760986328125,25318.453125,-6464.42822265625,-59401.1015625,-56482.09375,22142.2265625,-3000.554931640625,7761.97998046875,18213.8671875,-25298.140625,44708.1171875,-330741.15625,18990.5625,9948.7236328125,-34575.328125,888.2630004882812,-5686.01416015625,37246.48046875,16269.6220703125,25916.775390625,-23369.216796875,-1913.699951171875,35173.03125,-373152.40625,15446.97265625,36220.66015625,-37954.34765625,14834.6357421875,-5331.0068359375,11059.247466365
-31546.064453125,14533.8173828125,22194.126953125,2480.762939453125,25321.853515625,-6456.97802734375,-59400.05078125,-56478.01953125,22149.34375,-2978.47802734375,7763.6328125,18229.80859375,-25287.974609375,44720.171875,-330738.59375,18996.046875,9937.2333984375,-34571.359375,899.8369750976562,-5683.44384765625,37250.6875,16279.892578125,25912.6875,-23352.318359375,-1905.41796875,35180.9296875,-373149.90625,15451.896484375,36230.21484375,-37945.48046875,14841.1181640625,-5322.2421875,11059.249466365
-31534.46875,14541.541015625,22232.486328125,2483.97607421875,25339.560546875,-6432.0087890625,-59387.71875,-56463.5078125,22167.587890625,-2933.26904296875,7772.48193359375,18245.99609375,-25325.427734375,44703.30078125,-330719.78125,19003.26953125,9858.728515625,-34562.16015625,888.3270263671875,-5667.61279296875,37252.21875,16280.0380859375,25863.708984375,-23351.033203125,-1878.18798828125,35196.7578125,-373129.25,15460.990234375,36227.80859375,-37911.25,14824.0048828125,-5287.89306640625,11059.251466365
-31531.921875,14545.1728515625,22232.234375,2486.27197265625,25344.041015625,-6428.67919921875,-59383.5859375,-56458.2578125,22166.576171875,-2936.47509765625,7775.8779296875,18228.494140625,-25356.22265625,44677.41015625,-330717.21875,18997.9921875,9838.3828125,-34567.6953125,857.2470092773438,-5665.412109375,37247.8828125,16265.2275390625,25846.662109375,-23376.076171875,-1872.218994140625,35200.2578125,-373127.0625,15456.3525390625,36209.0546875,-37907.39453125,14800.916015625,-5282.23193359375,11059.253466365
-31544.587890625,14536.462890625,22192.7890625,2482.218017578125,25327.22265625,-6452.59814453125,-59394.67578125,-56473.0859375,22146.23046875,-2983.56591796875,7765.5048828125,18195.240234375,-25345.556640625,44671.640625,-330739.90625,18981.90625,9896.6240234375,-34582.81640625,841.1690063476562,-5684.07421875,37239.80859375,16249.6884765625,25875.64453125,-23400.8671875,-1896.717041015625,35188.5546875,-373151.15625,15440.4423828125,36193.76953125,-37936.484375,14794.12890625,-5310.55615234375,11059.255466364999
-31560.50390625,14526.9697265625,22146.119140625,2476.361083984375,25304.884765625,-6485.5830078125,-59411.4296875,-56493.32421875,22123.58203125,-3038.948974609375,7752.66015625,18174.4375,-25298.20703125,44693.15625,-330769.96875,18970.830078125,9984.625,-34595.79296875,857.7260131835938,-5709.15380859375,37241.04296875,16247.8857421875,25932.03515625,-23403.74609375,-1930.8509521484375,35178.30859375,-373183.875,15427.8232421875,36196.109375,-37976.1796875,14814.1279296875,-5351.8720703125,11059.257466365
-31567.08984375,14517.2509765625,22152.12109375,2464.708984375,25296.517578125,-6492.48583984375,-59420.45703125,-56501.65625,22122.4921875,-3031.56103515625,7743.10205078125,18195.19140625,-25262.4921875,44719.359375,-330780.90625,18971.564453125,9999.1513671875,-34594.66796875,894.6680297851562,-5719.158203125,37244.44140625,16264.4453125,25946.8671875,-23373.43359375,-1938.718994140625,35177.703125,-373195.25,15429.66796875,36216.3203125,-37982.01953125,14838.0908203125,-5357.7841796875,11059.259466365
-31551.99609375,14524.9248046875,22200.591796875,2468.175048828125,25317.8046875,-6464.7861328125,-59405.7578125,-56483.84765625,22144.857421875,-2976.626953125,7752.3681640625,18227.578125,-25285.884765625,44720.08203125,-330759.90625,18986.388671875,9914.2421875,-34578.33203125,905.1270141601562,-5702.18505859375,37253.8515625,16276.48828125,25901.880859375,-23351.2265625,-1910.3680419921875,35196.796875,-373172.6875,15446.8623046875,36229.98828125,-37945.6953125,14838.0634765625,-5321.64208984375,11059.261466365
-31543.78515625,14532.3564453125,22220.50390625,2473.673095703125,25330.09375,-6446.662109375,-59396.43359375,-56471.96875,22156.240234375,-2952.74609375,7760.27001953125,18231.384765625,-25325.40625,44701.16796875,-330748.96875,18989.86328125,9858.3994140625,-34572.91015625,881.1669921875,-5689.94482421875,37255.48828125,16272.189453125,25868.54296875,-23359.41796875,-1892.2569580078125,35205.87890625,-373159.8125,15452.1884765625,36222.609375,-37925.51171875,14818.8427734375,-5299.4931640625,11059.263466365
-31547.43359375,14534.6552734375,22202.658203125,2475.513916015625,25325.388671875,-6453.07080078125,-59398.296875,-56474.2421875,22149.314453125,-2973.283935546875,7761.0390625,18209.341796875,-25345.96875,44681.26171875,-330757.09375,18981.3359375,9860.4384765625,-34581.91015625,849.7440185546875,-5694.97998046875,37250.2109375,16257.8662109375,25866.55078125,-23384.037109375,-1898.91796875,35203.609375,-373168.125,15442.072265625,36206.30859375,-37935.4140625,14799.212890625,-5308.5771484375,11059.265466365
-31564.650390625,14522.8681640625,22162.42578125,2467.7890625,25305.79296875,-6479.65087890625,-59414.59375,-56493.3828125,22130.271484375,-3017.179931640625,7748.17919921875,18182.7109375,-25335.51953125,44677.9921875,-330782.6875,18964.736328125,9910.2119140625,-34600.2734375,836.5390014648438,-5716.02001953125,37240.15625,16244.3359375,25890.55078125,-23399.333984375,-1926.7860107421875,35190.7578125,-373196.03125,15423.2353515625,36193.03125,-37970.46484375,14792.9150390625,-5342.0869140625,11059.267466365
-31576.20703125,14511.548828125,22166.921875,2453.64599609375,25297.615234375,-6483.18603515625,-59424.84765625,-56501.6953125,22127.998046875,-3007.10107421875,7737.06591796875,18187.599609375,-25332.865234375,44680.640625,-330792.0625,18957.6953125,9898.357421875,-34608.0390625,842.9730224609375,-5724.548828125,37232.42578125,16243.302734375,25878.876953125,-23388.359375,-1929.5340576171875,35184.234375,-373205.15625,15414.1611328125,36190.34375,-37972.671875,14790.4521484375,-5345.044921875,11059.269466365
-31562.904296875,14520.5634765625,22207.296875,2456.760009765625,25317.517578125,-6455.27490234375,-59411.10546875,-56483.0,22147.796875,-2957.76904296875,7747.208984375,18208.17578125,-25362.24609375,44670.26171875,-330773.625,18968.35546875,9825.8662109375,-34597.32421875,840.2769775390625,-5706.30517578125,37235.375,16248.478515625,25835.603515625,-23377.869140625,-1899.7130126953125,35200.16796875,-373182.0,15424.1318359375,36193.89453125,-37937.9921875,14779.4052734375,-5309.119140625,11059.271466365
-31557.2265625,14526.8017578125,22209.14453125,2461.5791015625,25322.62109375,-6449.34716796875,-59405.7109375,-56476.64453125,22150.625,-2956.819091796875,7753.52001953125,18197.27734375,-25386.9296875,44650.44140625,-330769.09375,18968.435546875,9810.4033203125,-34599.08203125,818.364990234375,-5701.52197265625,37231.44140625,16238.6904296875,25823.970703125,-23396.8671875,-1891.905029296875,35204.921875,-373177.5,15421.333984375,36180.89453125,-37931.015625,14762.4130859375,-5300.47802734375,11059.273466364999
-31571.15234375,14517.3525390625,22169.765625,2455.256103515625,25303.9765625,-6473.32080078125,-59419.67578125,-56493.38671875,22130.71875,-3004.10009765625,7741.20703125,18167.884765625,-25374.15234375,44645.72265625,-330791.84375,18952.78515625,9873.9169921875,-34615.875,808.1500244140625,-5722.35986328125,37220.67578125,16225.05078125,25857.359375,-23418.669921875,-1918.321044921875,35191.21484375,-373203.71875,15403.5576171875,36165.30859375,-37962.60546875,14758.7197265625,-5331.4619140625,11059.275466365
-31578.263671875,14514.6728515625,22133.607421875,2459.717041015625,25290.08203125,-6498.2890625,-59426.921875,-56506.28515625,22117.734375,-3050.823974609375,7736.02099609375,18158.44921875,-25314.556640625,44677.30078125,-330813.5,18950.82421875,9971.390625,-34618.55078125,835.1270141601562,-5737.6572265625,37228.19921875,16234.712890625,25923.021484375,-23409.990234375,-1945.39794921875,35186.68359375,-373228.90625,15398.1279296875,36177.76171875,-37994.59375,14790.5634765625,-5366.123046875,11059.277466365
-31578.650390625,14511.671875,22145.498046875,2455.51708984375,25288.923828125,-6497.7041015625,-59430.30078125,-56508.23828125,22122.578125,-3036.02197265625,7731.96484375,18184.369140625,-25272.87109375,44710.8828125,-330817.6875,18960.478515625,9989.130859375,-34609.92578125,879.2739868164062,-5741.63818359375,37235.0078125,16256.6474609375,25940.80859375,-23372.75,-1946.0980224609375,35190.69921875,-373233.90625,15405.3134765625,36203.3203125,-37993.25,14822.744140625,-5365.51123046875,11059.279466365
-31560.052734375,14522.9296875,22195.880859375,2459.740966796875,25311.158203125,-6467.68115234375,-59413.4765625,-56489.1484375,22148.470703125,-2978.1201171875,7745.5751953125,18221.6015625,-25291.3828125,44714.38671875,-330795.25,18979.369140625,9910.841796875,-34589.11328125,895.198974609375,-5721.962890625,37243.5703125,16273.490234375,25899.10546875,-23345.6015625,-1914.4739990234375,35210.046875,-373208.6875,15425.3603515625,36221.11328125,-37954.0390625,14828.326171875,-5325.59619140625,11059.281466365
-31552.65234375,14526.7021484375,22215.8515625,2461.924072265625,25321.150390625,-6454.98779296875,-59407.3828125,-56480.6640625,22157.037109375,-2956.001953125,7751.5400390625,18223.689453125,-25329.173828125,44693.546875,-330787.5,18981.55078125,9857.10546875,-34586.42578125,872.7219848632812,-5713.255859375,37239.77734375,16269.25,25865.904296875,-23353.791015625,-1899.2259521484375,35216.02734375,-373198.75,15428.783203125,36215.36328125,-37936.84375,14809.9462890625,-5306.21923828125,11059.283466365
-31552.435546875,14531.125,22203.5078125,2467.447021484375,25320.513671875,-6457.39599609375,-59406.125,-56478.31640625,22155.40625,-2970.8759765625,7753.14013671875,18208.53125,-25341.048828125,44684.68359375,-330791.1875,18978.2578125,9870.3466796875,-34590.22265625,849.06298828125,-5714.240234375,37238.62109375,16262.455078125,25872.63671875,-23371.478515625,-1900.655029296875,35216.74609375,-373203.0,15425.7265625,36205.19140625,-37943.25390625,14797.9970703125,-5312.3798828125,11059.285466365
-31562.623046875,14527.138671875,22171.056640625,2466.31494140625,25306.744140625,-6475.0048828125,-59413.9921875,-56489.26953125,22145.189453125,-3006.60595703125,7747.3349609375,18191.865234375,-25320.71875,44693.44140625,-330809.6875,18970.486328125,9925.3447265625,-34601.93359375,844.864990234375,-5727.7900390625,37237.95703125,16259.208984375,25907.1484375,-23376.939453125,-1920.759033203125,35211.0234375,-373223.1875,15414.2451171875,36199.88671875,-37970.1171875,14800.8291015625,-5339.083984375,11059.287466365
-31563.013671875,14526.0849609375,22184.34765625,2463.113037109375,25309.3359375,-6469.68896484375,-59413.80078125,-56488.625,22151.234375,-2987.76806640625,7748.23779296875,18207.5859375,-25313.615234375,44703.82421875,-330809.65625,18973.421875,9914.75,-34600.5703125,859.2410278320312,-5725.47607421875,37239.41796875,16266.998046875,25903.017578125,-23358.4765625,-1914.97802734375,35214.9140625,-373222.5625,15416.49609375,36208.68359375,-37963.33984375,14807.625,-5331.71484375,11059.289466365
-31549.841796875,14536.4189453125,22225.390625,2467.455078125,25330.05859375,-6442.19921875,-59399.140625,-56469.05859375,22171.26171875,-2939.5439453125,7760.22802734375,18229.205078125,-25349.126953125,44691.16796875,-330789.28125,18983.728515625,9835.044921875,-34587.81640625,851.6430053710938,-5706.36279296875,37241.046875,16270.3701171875,25854.94921875,-23351.53125,-1883.8690185546875,35229.3046875,-373199.0,15428.255859375,36209.37890625,-37927.91015625,14794.3623046875,-5293.8330078125,11059.291466364999
-31548.41015625,14541.248046875,22225.896484375,2470.864990234375,25334.7421875,-6436.5478515625,-59394.94921875,-56463.8671875,22170.90625,-2940.342041015625,7763.9677734375,18216.318359375,-25375.205078125,44670.17578125,-330786.71875,18980.1640625,9818.3173828125,-34587.46875,824.844970703125,-5702.2890625,37234.37890625,16258.4912109375,25841.57421875,-23371.26953125,-1877.7469482421875,35231.42578125,-373195.0625,15424.388671875,36195.41796875,-37921.1328125,14775.5966796875,-5286.630859375,11059.293466365
-31554.33984375,14539.49609375,22194.240234375,2471.8740234375,25324.546875,-6454.53515625,-59401.15234375,-56472.48828125,22157.76953125,-2979.001953125,7760.63720703125,18193.458984375,-25352.990234375,44671.92578125,-330801.03125,18972.634765625,9884.134765625,-34594.1640625,819.1430053710938,-5713.5009765625,37232.12109375,16252.2734375,25880.974609375,-23386.501953125,-1896.552978515625,35225.4296875,-373212.8125,15414.783203125,36188.4296875,-37943.58984375,14779.2099609375,-5310.005859375,11059.295466365
-31571.376953125,14526.4482421875,22147.193359375,2465.22900390625,25298.626953125,-6488.76123046875,-59420.14453125,-56495.54296875,22134.8203125,-3035.446044921875,7745.5478515625,18174.236328125,-25302.697265625,44695.6171875,-330831.84375,18960.283203125,9978.359375,-34607.30078125,836.2650146484375,-5738.73486328125,37231.23828125,16253.357421875,25941.044921875,-23385.923828125,-1933.5989990234375,35211.32421875,-373248.625,15402.1826171875,36192.60546875,-37985.7890625,14801.818359375,-5354.09521484375,11059.297466365
-31568.57421875,14524.482421875,22163.419921875,2463.77392578125,25300.71875,-6486.615234375,-59420.5703125,-56495.5078125,22142.078125,-3019.388916015625,7745.19384765625,18205.69921875,-25257.69140625,44735.5625,-330835.21875,18972.271484375,10007.5478515625,-34596.41796875,887.60498046875,-5738.19091796875,37245.484375,16280.447265625,25969.1796875,-23345.587890625,-1932.45703125,35219.3671875,-373251.125,15414.0166015625,36225.3203125,-37981.63671875,14840.291015625,-5351.47119140625,11059.299466365
-31549.421875,14538.22265625,22216.046875,2470.035888671875,25325.169921875,-6454.0517578125,-59403.203125,-56474.109375,22169.88671875,-2959.64306640625,7759.26708984375,18245.013671875,-25278.607421875,44742.1484375,-330810.3125,18992.896484375,9930.0703125,-34574.64453125,904.7009887695312,-5717.2177734375,37258.82421875,16298.826171875,25929.0546875,-23317.57421875,-1898.657958984375,35240.046875,-373223.8125,15434.478515625,36245.34375,-37940.37109375,14847.4296875,-5310.376953125,11059.301466365
-31546.6640625,14541.2626953125,22230.751953125,2469.533935546875,25331.505859375,-6444.36279296875,-59398.88671875,-56467.64453125,22176.103515625,-2939.800048828125,7762.35205078125,18243.080078125,-25323.193359375,44716.8046875,-330804.90625,18993.1015625,9864.7451171875,-34574.84765625,874.3179931640625,-5711.81005859375,37252.4921875,16288.1259765625,25885.708984375,-23331.84375,-1887.4229736328125,35243.3828125,-373216.75,15432.9248046875,36233.73046875,-37925.7109375,14822.458984375,-5295.6708984375,11059.303466365
-31550.408203125,14541.6337890625,22214.951171875,2471.9990234375,25327.75,-6451.61083984375,-59400.45703125,-56470.21875,22168.89453125,-2957.575927734375,7762.89111328125,18220.431640625,-25340.36328125,44699.2109375,-330812.5625,18984.736328125,9865.6015625,-34582.765625,842.843017578125,-5714.298828125,37244.35546875,16273.1416015625,25882.2265625,-23355.74609375,-1892.4959716796875,35240.453125,-373224.375,15424.1171875,36218.09765625,-37935.2421875,14804.61328125,-5303.84716796875,11059.305466365
-31563.640625,14535.4404296875,22180.330078125,2468.69091796875,25312.013671875,-6472.455078125,-59411.3984375,-56485.32421875,22154.021484375,-2995.450927734375,7754.65380859375,18197.423828125,-25323.349609375,44700.40234375,-330833.0625,18973.716796875,9917.462890625,-34597.14453125,833.4459838867188,-5729.4267578125,37237.94921875,16262.89453125,25909.0078125,-23367.966796875,-1914.6639404296875,35230.9609375,-373246.625,15409.4638671875,36208.5625,-37963.6953125,14803.4501953125,-5332.455078125,11059.307466365
-31569.0390625,14529.775390625,22189.9453125,2460.83203125,25309.3515625,-6470.8427734375,-59415.55078125,-56486.9453125,22155.580078125,-2980.510986328125,7748.93603515625,18208.576171875,-25316.060546875,44707.51171875,-330837.375,18974.03125,9910.4384765625,-34597.640625,845.427001953125,-5731.93701171875,37236.07421875,16268.8134765625,25904.560546875,-23352.0546875,-1912.3680419921875,35231.59375,-373249.5,15405.931640625,36213.4375,-37962.83203125,14808.73046875,-5329.18408203125,11059.309466364999
-31547.224609375,14547.2607421875,22238.60546875,2474.4560546875,25339.171875,-6433.16015625,-59393.29296875,-56459.89453125,22184.255859375,-2923.194091796875,7769.94287109375,18236.482421875,-25340.3671875,44706.765625,-330808.40625,18994.66015625,9843.15234375,-34579.02734375,848.6430053710938,-5704.375,37247.6796875,16280.615234375,25869.564453125,-23335.763671875,-1873.512939453125,35256.1953125,-373217.1875,15422.91796875,36222.8515625,-37918.26171875,14805.1005859375,-5282.99609375,11059.311466365
-31548.814453125,14546.78515625,22234.021484375,2471.68310546875,25338.591796875,-6432.60693359375,-59394.26953125,-56459.953125,22180.107421875,-2926.928955078125,7769.52294921875,18219.45703125,-25369.7734375,44682.51171875,-330811.1875,18987.15625,9824.4189453125,-34586.5859375,819.739013671875,-5704.3818359375,37238.9296875,16262.796875,25851.7265625,-23358.484375,-1871.8299560546875,35253.19921875,-373218.65625,15413.013671875,36204.30078125,-37917.14453125,14781.638671875,-5280.98876953125,11059.313466365
-31555.43359375,14543.5712890625,22202.681640625,2471.81396484375,25327.142578125,-6451.2021484375,-59400.88671875,-56469.70703125,22166.115234375,-2965.845947265625,7764.63916015625,18197.15625,-25345.35546875,44686.3359375,-330828.3125,18979.095703125,9896.8291015625,-34595.2578125,818.7360229492188,-5716.26611328125,37236.2734375,16256.1806640625,25893.16796875,-23370.31640625,-1889.948974609375,35247.97265625,-373237.8125,15401.494140625,36199.25,-37940.234375,14787.5791015625,-5304.14404296875,11059.315466365
-31571.12109375,14533.66796875,22158.87890625,2468.001953125,25304.22265625,-6484.908203125,-59416.12109375,-56490.6640625,22145.21484375,-3020.1630859375,7751.76123046875,18179.82421875,-25294.07421875,44709.59375,-330858.3125,18971.169921875,9986.689453125,-34607.03125,837.1320190429688,-5740.45703125,37235.109375,16257.822265625,25952.908203125,-23370.326171875,-1925.4239501953125,35235.4765625,-373271.5625,15387.57421875,36204.984375,-37980.81640625,14810.453125,-5346.5341796875,11059.317466364999
-31579.1796875,14520.73828125,22162.123046875,2455.552978515625,25293.494140625,-6493.52392578125,-59427.3984375,-56502.37890625,22142.697265625,-3014.508056640625,7738.81298828125,18201.181640625,-25256.13671875,44739.703125,-330871.46875,18973.42578125,10007.3251953125,-34606.13671875,877.6849975585938,-5751.76708984375,37238.15234375,16275.115234375,25972.08203125,-23339.193359375,-1936.198974609375,35232.53515625,-373286.0,15387.4482421875,36227.1640625,-37988.109375,14838.9267578125,-5356.68701171875,11059.319466365
-31563.521484375,14529.3046875,22210.70703125,2459.507080078125,25314.705078125,-6465.9990234375,-59414.93359375,-56485.09765625,22166.04296875,-2959.26611328125,7749.35693359375,18237.1875,-25274.095703125,44743.83984375,-330851.84375,18991.2421875,9926.7412109375,-34588.1015625,893.4920043945312,-5732.52685546875,37247.46875,16291.3154296875,25929.384765625,-23314.267578125,-1906.376953125,35250.16015625,-373261.90625,15404.55859375,36244.42578125,-37950.3203125,14843.1064453125,-5319.412109375,11059.321466365
-31553.865234375,14538.9560546875,22233.91015625,2465.698974609375,25330.064453125,-6447.8681640625,-59403.89453125,-56469.19140625,22179.453125,-2932.1201171875,7760.0888671875,18243.734375,-25314.142578125,44724.55078125,-330838.25,18997.59375,9865.02734375,-34579.203125,867.1909790039062,-5718.85888671875,37249.05078125,16289.0029296875,25892.423828125,-23322.7890625,-1887.720947265625,35259.625,-373248.53125,15410.443359375,36238.09765625,-37927.57421875,14823.5302734375,-5295.30810546875,11059.323466365
-31560.849609375,14537.6318359375,22214.0625,2464.4580078125,25322.5703125,-6455.3779296875,-59407.625,-56474.77734375,22170.931640625,-2953.366943359375,7756.43310546875,18218.64453125,-25340.71875,44700.21484375,-330847.90625,18987.19921875,9858.8447265625,-34589.015625,829.02001953125,-5724.4921875,37241.33984375,16272.2646484375,25885.6953125,-23349.900390625,-1895.64697265625,35253.3984375,-373257.65625,15397.2919921875,36217.07421875,-37940.55859375,14799.7998046875,-5306.94189453125,11059.325466365
-31575.103515625,14531.3671875,22179.462890625,2462.034912109375,25306.48046875,-6475.091796875,-59418.6640625,-56488.06640625,22156.69921875,-2991.656982421875,7748.9638671875,18195.921875,-25328.876953125,44698.3125,-330868.21875,18975.484375,9903.4609375,-34602.078125,815.4600219726562,-5738.73779296875,37235.8046875,16262.341796875,25908.822265625,-23365.046875,-1917.4639892578125,35245.7578125,-373278.5,15381.4072265625,36204.828125,-37969.171875,14794.2265625,-5334.81494140625,11059.327466364999
-31568.673828125,14538.0263671875,22199.251953125,2466.365966796875,25316.212890625,-6462.216796875,-59411.828125,-56479.0,22168.177734375,-2965.735107421875,7756.4912109375,18215.3984375,-25319.35546875,44710.73828125,-330860.8125,18985.515625,9895.724609375,-34593.6640625,833.18701171875,-5728.38916015625,37242.93359375,16273.921875,25905.69140625,-23346.98046875,-1903.404052734375,35257.4609375,-373270.3125,15388.4306640625,36214.98046875,-37953.86328125,14801.7607421875,-5318.875,11059.329466365
-31557.96875,14544.3046875,22235.19140625,2467.7919921875,25332.080078125,-6435.61083984375,-59399.7109375,-56462.796875,22185.775390625,-2921.407958984375,7765.080078125,18231.685546875,-25356.810546875,44694.3984375,-330843.34375,18992.33984375,9819.1826171875,-34586.10546875,822.3930053710938,-5711.1181640625,37242.9140625,16273.44140625,25857.83984375,-23343.005859375,-1875.699951171875,35269.65234375,-373249.0,15394.6552734375,36211.4765625,-37920.01171875,14783.5966796875,-5284.88623046875,11059.331466365
-31553.546875,14548.720703125,22235.38671875,2471.10107421875,25338.185546875,-6430.10302734375,-59394.63671875,-56457.44140625,22187.712890625,-2921.595947265625,7769.22705078125,18219.140625,-25380.02734375,44676.01953125,-330839.375,18990.40625,9812.138671875,-34586.80859375,800.1079711914062,-5705.60888671875,37239.51953125,16263.5361328125,25849.744140625,-23356.779296875,-1868.4169921875,35272.98046875,-373246.5,15391.404296875,36198.79296875,-37911.75,14769.5087890625,-5277.048828125,11059.333466365
-31555.240234375,14550.3486328125,22208.611328125,2475.361083984375,25332.1640625,-6444.27099609375,-59397.296875,-56462.75390625,22178.8828125,-2957.60107421875,7768.26123046875,18200.849609375,-25354.810546875,44686.39453125,-330851.40625,18987.126953125,9885.2275390625,-34590.1328125,802.2249755859375,-5713.01806640625,37242.1171875,16262.4833984375,25894.927734375,-23364.1328125,-1881.9759521484375,35270.96484375,-373260.90625,15385.0751953125,36198.05078125,-37930.59765625,14781.517578125,-5295.27685546875,11059.335466364999
-31576.220703125,14533.990234375,22158.326171875,2465.85302734375,25302.80859375,-6482.9208984375,-59419.25390625,-56489.29296875,22150.697265625,-3017.60205078125,7749.48779296875,18179.333984375,-25303.36328125,44710.1015625,-330887.03125,18973.984375,9980.7265625,-34607.171875,823.3980102539062,-5742.701171875,37235.6484375,16261.548828125,25954.94140625,-23365.626953125,-1923.14404296875,35252.80859375,-373299.5,15366.2470703125,36200.1953125,-37976.625,14805.8681640625,-5344.35595703125,11059.337466365
-31571.5625,14534.6669921875,22174.494140625,2466.468017578125,25305.404296875,-6479.64306640625,-59418.09375,-56488.34375,22158.53515625,-2998.93408203125,7751.30712890625,18214.759765625,-25248.45703125,44756.546875,-330888.4375,18990.111328125,10018.63671875,-34593.13671875,881.6240234375,-5741.02392578125,37250.26171875,16290.693359375,25988.013671875,-23319.275390625,-1921.18505859375,35262.00390625,-373301.125,15380.3310546875,36235.9375,-37971.875,14850.7802734375,-5342.6650390625,11059.339466365
-31555.337890625,14543.2158203125,22222.142578125,2469.262939453125,25324.59375,-6452.68017578125,-59404.78515625,-56471.4765625,22182.4921875,-2943.577880859375,7761.35107421875,18251.181640625,-25266.14453125,44762.16796875,-330868.28125,19008.865234375,9943.1376953125,-34574.0703125,898.1259765625,-5723.69384765625,37259.18359375,16306.931640625,25947.603515625,-23295.353515625,-1893.508056640625,35278.39453125,-373278.6875,15399.265625,36255.90625,-37934.984375,14856.890625,-5306.533203125,11059.341466365
-31552.0234375,14544.59375,22238.23828125,2468.15087890625,25330.177734375,-6443.201171875,-59401.94140625,-56465.76953125,22186.5546875,-2924.008056640625,7762.94189453125,18253.65234375,-25306.626953125,44740.8515625,-330864.21875,19009.775390625,9888.224609375,-34572.58203125,875.5859985351562,-5718.55908203125,37254.71875,16298.4150390625,25910.93359375,-23306.796875,-1883.7989501953125,35281.640625,-373271.65625,15399.4404296875,36246.62890625,-37920.44921875,14836.9501953125,-5291.60791015625,11059.343466365
-31555.42578125,14544.388671875,22222.423828125,2470.343994140625,25327.5546875,-6449.40576171875,-59403.97265625,-56468.01953125,22179.390625,-2943.0390625,7762.662109375,18233.560546875,-25327.853515625,44724.203125,-330872.03125,19002.01171875,9884.4873046875,-34579.79296875,847.8939819335938,-5722.26806640625,37250.11328125,16285.4130859375,25905.72265625,-23328.822265625,-1888.6500244140625,35279.265625,-373279.21875,15390.791015625,36231.0,-37928.87109375,14818.5322265625,-5299.97705078125,11059.345466364999
-31574.712890625,14531.3427734375,22181.828125,2458.8349609375,25305.0,-6475.94580078125,-59421.59765625,-56486.98828125,22157.982421875,-2987.327880859375,7748.0361328125,18204.748046875,-25322.55078125,44718.69140625,-330900.25,18983.64453125,9920.4072265625,-34598.59765625,833.405029296875,-5743.4638671875,37238.453125,16270.74609375,25923.83203125,-23348.5078125,-1916.18798828125,35263.43359375,-373308.375,15370.544921875,36216.0078125,-37964.1328125,14809.490234375,-5333.63818359375,11059.347466365
-31582.43359375,14520.7099609375,22188.67578125,2447.1279296875,25297.72265625,-6477.72998046875,-59430.60546875,-56493.7890625,22156.05078125,-2975.55908203125,7739.38916015625,18213.111328125,-25314.478515625,44723.52734375,-330908.25,18979.357421875,9913.91796875,-34602.61328125,845.89697265625,-5750.14501953125,37232.71875,16272.337890625,25916.189453125,-23334.896484375,-1919.1199951171875,35260.91015625,-373315.8125,15365.548828125,36217.53125,-37965.63671875,14812.0556640625,-5335.126953125,11059.349466365
-31563.3125,14536.55859375,22237.720703125,2457.60693359375,25323.806640625,-6443.88818359375,-59410.68359375,-56470.92578125,22183.447265625,-2919.636962890625,7756.02392578125,18240.568359375,-25336.51171875,44719.515625,-330881.84375,18996.42578125,9848.75390625,-34582.19921875,850.3300170898438,-5723.7138671875,37242.37890625,16281.3212890625,25878.189453125,-23318.837890625,-1882.7860107421875,35282.45703125,-373286.65625,15383.814453125,36226.890625,-37922.85546875,14808.505859375,-5292.73681640625,11059.351466365
-31557.380859375,14543.79296875,22241.6015625,2464.260009765625,25331.591796875,-6436.1689453125,-59404.21875,-56464.4921875,22186.498046875,-2916.14990234375,7762.60009765625,18229.923828125,-25361.267578125,44700.55078125,-330876.0,18997.1171875,9831.169921875,-34581.40234375,829.0390014648438,-5715.783203125,37240.1328125,16271.8193359375,25864.271484375,-23336.43359375,-1873.64697265625,35287.53515625,-373280.625,15382.5517578125,36215.21484375,-37911.41796875,14790.99609375,-5280.62890625,11059.353466364999
-31566.03515625,14537.0537109375,22207.607421875,2462.489990234375,25318.0625,-6457.39306640625,-59412.09375,-56475.33984375,22168.998046875,-2957.195068359375,7756.64013671875,18203.58984375,-25343.86328125,44698.72265625,-330894.6875,18987.1171875,9895.4296875,-34591.5859375,822.0360107421875,-5730.26416015625,37233.57421875,16262.6845703125,25899.521484375,-23352.48046875,-1893.970947265625,35278.25,-373301.84375,15368.587890625,36206.703125,-37935.91796875,14792.896484375,-5306.97119140625,11059.355466365
-31581.140625,14525.9072265625,22163.130859375,2457.989990234375,25295.689453125,-6490.2138671875,-59429.38671875,-56495.50390625,22147.365234375,-3012.23291015625,7742.52001953125,18185.76953125,-25290.99609375,44724.8125,-330926.40625,18978.5078125,9992.8779296875,-34601.828125,843.2260131835938,-5753.5830078125,37233.53515625,16265.5498046875,25961.763671875,-23349.8125,-1928.3349609375,35266.72265625,-373335.15625,15356.666015625,36212.59375,-37976.32421875,14818.3291015625,-5350.3671875,11059.357466365
-31582.923828125,14521.5224609375,22173.478515625,2452.958984375,25291.552734375,-6493.63916015625,-59435.3125,-56500.32421875,22149.80078125,-3001.3330078125,7737.9140625,18212.099609375,-25239.373046875,44764.63671875,-330934.40625,18988.681640625,10028.9326171875,-34591.68359375,894.2589721679688,-5757.6728515625,37242.8671875,16289.248046875,25990.47265625,-23309.197265625,-1933.3310546875,35269.55859375,-373343.625,15363.234375,36240.8671875,-37977.31640625,14856.4638671875,-5354.37109375,11059.359466365
-31565.501953125,14532.68359375,22222.255859375,2457.429931640625,25313.287109375,-6466.38818359375,-59421.5625,-56482.09375,22174.41796875,-2945.26806640625,7749.9208984375,18248.359375,-25253.212890625,44771.96875,-330912.46875,19009.06640625,9952.4931640625,-34571.23046875,913.5869750976562,-5737.56103515625,37254.51171875,16307.2890625,25951.267578125,-23280.0859375,-1904.7120361328125,35287.21484375,-373319.65625,15382.8779296875,36261.49609375,-37938.87109375,14863.580078125,-5317.248046875,11059.361466365
-31555.373046875,14540.6396484375,22243.865234375,2462.787109375,25326.78125,-6449.26318359375,-59409.6796875,-56470.03515625,22187.470703125,-2920.283935546875,7759.32080078125,18254.89453125,-25291.421875,44752.6953125,-330899.40625,19016.67578125,9891.244140625,-34563.359375,893.47900390625,-5726.10400390625,37253.94921875,16304.044921875,25912.91796875,-23287.287109375,-1886.718017578125,35297.03515625,-373304.84375,15389.3984375,36256.296875,-37917.73828125,14845.13671875,-5294.22314453125,11059.363466365
-31557.580078125,14544.482421875,22229.75390625,2466.9580078125,25324.70703125,-6452.951171875,-59408.671875,-56469.59375,22183.326171875,-2936.64990234375,7760.97021484375,18235.361328125,-25317.099609375,44730.10546875,-330903.96875,19010.234375,9881.0966796875,-34569.16015625,861.698974609375,-5728.123046875,37248.66796875,16288.837890625,25902.4609375,-23313.755859375,-1889.81396484375,35295.22265625,-373310.59375,15382.1962890625,36237.40625,-37923.6484375,14822.453125,-5301.4970703125,11059.365466365
-31568.361328125,14543.0517578125,22199.345703125,2468.556884765625,25313.92578125,-6468.87890625,-59414.97265625,-56478.33203125,22171.34375,-2970.988037109375,7757.51806640625,18212.73828125,-25309.626953125,44725.3125,-330919.625,19000.8984375,9917.859375,-34578.50390625,849.343994140625,-5736.35693359375,37245.63671875,16279.1884765625,25921.1875,-23330.21484375,-1905.70703125,35290.4765625,-373327.65625,15369.9443359375,36224.5390625,-37945.23046875,14816.95703125,-5324.18701171875,11059.367466365
-31569.869140625,14540.3701171875,22209.447265625,2463.22802734375,25314.701171875,-6464.12890625,-59417.0234375,-56477.47265625,22176.15234375,-2954.47607421875,7755.001953125,18219.748046875,-25309.40625,44728.71875,-330922.40625,18999.310546875,9905.6494140625,-34579.16015625,856.697998046875,-5735.2490234375,37245.06640625,16281.3212890625,25912.09375,-23319.2265625,-1900.2440185546875,35293.54296875,-373327.84375,15369.236328125,36226.2421875,-37937.6171875,14816.783203125,-5316.90380859375,11059.369466365
-31554.0859375,14551.0830078125,22251.34765625,2469.403076171875,25335.953125,-6433.671875,-59401.8125,-56457.984375,22197.2109375,-2904.820068359375,7767.5458984375,18238.0625,-25345.4453125,44715.68359375,-330901.96875,19009.564453125,9832.802734375,-34566.66015625,849.7210083007812,-5713.708984375,37249.765625,16281.91015625,25867.5703125,-23312.75390625,-1869.1920166015625,35308.73828125,-373302.8125,15380.0693359375,36226.67578125,-37899.47265625,14803.1064453125,-5278.7119140625,11059.371466364999
-31543.3125,14563.6806640625,22259.802734375,2480.51611328125,25347.9375,-6421.39208984375,-59390.44140625,-56444.9140625,22203.4765625,-2897.56396484375,7779.23681640625,18229.455078125,-25370.03515625,44698.10546875,-330891.65625,19012.228515625,9819.998046875,-34562.140625,828.4520263671875,-5701.1298828125,37252.53125,16275.7158203125,25858.4609375,-23328.587890625,-1854.218017578125,35317.88671875,-373290.71875,15381.8828125,36216.73046875,-37884.03515625,14790.5966796875,-5263.8798828125,11059.373466365
-31558.478515625,14551.9208984375,22220.29296875,2473.0810546875,25328.115234375,-6447.84423828125,-59406.27734375,-56462.2265625,22180.455078125,-2945.069091796875,7767.2099609375,18194.4921875,-25362.55078125,44689.609375,-330914.5625,18993.923828125,9878.1396484375,-34579.9609375,814.0640258789062,-5720.98486328125,37241.65234375,16259.0009765625,25887.921875,-23353.615234375,-1880.2869873046875,35303.37890625,-373316.625,15363.552734375,36200.72265625,-37913.9921875,14786.2060546875,-5294.67578125,11059.375466365
-31576.056640625,14538.87109375,22170.44140625,2465.5810546875,25301.904296875,-6483.6181640625,-59424.73046875,-56486.3203125,22155.900390625,-3002.7041015625,7752.09619140625,18170.873046875,-25315.22265625,44708.3671875,-330947.40625,18979.7421875,9969.30859375,-34594.84375,831.4199829101562,-5747.81591796875,37235.51953125,16254.2958984375,25942.82421875,-23358.568359375,-1917.0460205078125,35287.46484375,-373353.03125,15347.7646484375,36199.62109375,-37956.0859375,14805.8857421875,-5339.7470703125,11059.377466365
-31584.03515625,14524.7470703125,22170.53515625,2452.09912109375,25290.603515625,-6495.64013671875,-59435.48046875,-56500.26171875,22151.158203125,-3000.94091796875,7738.31787109375,18186.748046875,-25271.482421875,44736.8671875,-330962.9375,18979.080078125,9997.443359375,-34597.00390625,871.3179931640625,-5760.6650390625,37235.10546875,16267.826171875,25963.11328125,-23329.369140625,-1931.2650146484375,35280.15234375,-373369.6875,15346.7734375,36218.3515625,-37965.0390625,14833.7900390625,-5350.7548828125,11059.379466365
-31569.806640625,14532.1650390625,22214.0546875,2453.736083984375,25308.1171875,-6471.037109375,-59424.58203125,-56484.6640625,22172.0859375,-2949.23388671875,7746.10205078125,18220.259765625,-25280.76171875,44741.875,-330944.71875,18995.744140625,9928.3857421875,-34579.0625,887.5130004882812,-5745.2587890625,37244.8828125,16283.7255859375,25927.078125,-23303.50390625,-1906.198974609375,35294.078125,-373350.5625,15365.0947265625,36236.4375,-37929.15234375,14837.8857421875,-5318.35400390625,11059.381466365
-31558.033203125,14543.4169921875,22238.080078125,2463.592041015625,25324.564453125,-6450.88623046875,-59412.515625,-56470.5078125,22186.322265625,-2921.902099609375,7758.61279296875,18229.57421875,-25313.158203125,44727.07421875,-330929.78125,19004.365234375,9872.001953125,-34568.34375,870.8280029296875,-5729.8017578125,37249.55078125,16284.041015625,25894.31640625,-23307.134765625,-1885.6719970703125,35304.81640625,-373332.5,15375.1953125,36234.2265625,-37905.1953125,14822.6376953125,-5294.5830078125,11059.383466365
-31558.271484375,14548.208984375,22224.296875,2470.177978515625,25323.931640625,-6453.18994140625,-59410.015625,-56467.31640625,22182.40625,-2936.741943359375,7762.4521484375,18210.05859375,-25337.92578125,44707.12890625,-330932.90625,19000.30078125,9861.4697265625,-34573.73046875,845.2890014648438,-5728.0732421875,37244.69921875,16270.396484375,25884.33203125,-23329.521484375,-1887.2889404296875,35303.8671875,-373335.875,15370.0732421875,36216.69140625,-37908.8671875,14801.8779296875,-5297.30419921875,11059.385466365
-31569.31640625,14544.0703125,22191.525390625,2470.85888671875,25311.849609375,-6470.06884765625,-59416.85546875,-56477.09765625,22169.427734375,-2971.73095703125,7757.27783203125,18188.056640625,-25331.61328125,44704.5234375,-330949.34375,18988.970703125,9898.490234375,-34584.51953125,836.8499755859375,-5739.2080078125,37239.2578125,16260.4990234375,25903.76171875,-23345.603515625,-1903.9339599609375,35296.59765625,-373355.1875,15358.4443359375,36205.4296875,-37932.984375,14795.8994140625,-5320.98779296875,11059.387466365
-31572.9375,14539.15625,22198.55859375,2463.864990234375,25311.197265625,-6466.125,-59420.3828125,-56479.1484375,22170.068359375,-2956.179931640625,7752.85302734375,18194.8515625,-25330.640625,44705.94921875,-330952.78125,18986.544921875,9885.6171875,-34584.30859375,845.5460205078125,-5739.7509765625,37237.01171875,16262.6630859375,25893.40625,-23337.880859375,-1900.52099609375,35296.63671875,-373355.6875,15356.7041015625,36206.3359375,-37927.41015625,14795.6181640625,-5316.1767578125,11059.389466364999
-31563.951171875,14544.0654296875,22235.388671875,2461.873046875,25325.8203125,-6442.6259765625,-59412.9921875,-56466.47265625,22184.923828125,-2912.321044921875,7759.68310546875,18209.0859375,-25360.6015625,44691.9140625,-330938.75,18991.599609375,9821.64453125,-34577.5390625,840.3189697265625,-5725.3271484375,37237.00390625,16263.7509765625,25852.078125,-23334.04296875,-1875.6199951171875,35306.66015625,-373337.9375,15362.54296875,36203.9140625,-37895.01171875,14781.4609375,-5285.208984375,11059.391466365
-31556.458984375,14551.9560546875,22241.228515625,2468.653076171875,25334.82421875,-6433.58203125,-59404.453125,-56456.98046875,22189.482421875,-2908.39794921875,7767.669921875,18201.1875,-25378.38671875,44678.49609375,-330931.15625,18994.142578125,9818.4462890625,-34575.0234375,825.1079711914062,-5716.591796875,37236.87890625,16258.8837890625,25846.953125,-23347.4453125,-1863.72998046875,35312.21875,-373330.125,15363.69921875,36195.8984375,-37883.75,14769.1826171875,-5273.21484375,11059.393466365
-31564.705078125,14547.8701171875,22207.09375,2469.1279296875,25322.2421875,-6452.873046875,-59412.046875,-56467.015625,22172.646484375,-2949.260009765625,7761.759765625,18175.650390625,-25360.01171875,44678.79296875,-330949.0,18983.9140625,9882.427734375,-34584.64453125,820.1699829101562,-5728.74609375,37231.609375,16250.98828125,25882.626953125,-23362.40625,-1883.968994140625,35303.37109375,-373348.3125,15353.671875,36188.17578125,-37905.984375,14771.6064453125,-5297.52587890625,11059.395466365
-31583.21875,14534.1220703125,22157.728515625,2461.571044921875,25295.31640625,-6490.408203125,-59432.5,-56492.046875,22148.482421875,-3008.0458984375,7745.79296875,18153.767578125,-25309.08203125,44702.22265625,-330982.65625,18971.44921875,9979.24609375,-34598.1875,839.1519775390625,-5756.4208984375,37228.76953125,16251.5048828125,25944.623046875,-23364.1875,-1923.7750244140625,35288.48046875,-373385.65625,15340.94921875,36190.30859375,-37949.5703125,14794.62890625,-5344.375,11059.397466365
-31581.34375,14532.099609375,22168.8671875,2458.60595703125,25293.1953125,-6491.96484375,-59434.55078125,-56493.78125,22156.09765625,-2996.22509765625,7743.52880859375,18184.974609375,-25252.763671875,44746.7265625,-330987.78125,18984.6875,10022.34375,-34587.671875,894.8679809570312,-5759.07421875,37244.16015625,16280.8974609375,25981.603515625,-23323.275390625,-1926.510009765625,35293.58203125,-373392.375,15352.7529296875,36224.0078125,-37948.9140625,14839.490234375,-5347.298828125,11059.399466365
-31562.96875,14541.8427734375,22217.322265625,2464.873046875,25315.314453125,-6463.9580078125,-59418.85546875,-56475.609375,22182.5078125,-2938.282958984375,7756.119140625,18227.419921875,-25261.19921875,44760.0546875,-330965.28125,19005.84765625,9957.69140625,-34566.9375,921.9190063476562,-5738.03076171875,37260.96875,16303.232421875,25951.048828125,-23293.357421875,-1896.761962890625,35310.72265625,-373369.6875,15375.888671875,36250.24609375,-37910.63671875,14853.7138671875,-5310.544921875,11059.401466365
-31556.16796875,14546.70703125,22236.171875,2467.10498046875,25325.072265625,-6450.09814453125,-59412.05078125,-56468.44140625,22190.998046875,-2915.943115234375,7762.01611328125,18232.431640625,-25303.046875,44741.34375,-330957.28125,19008.9375,9897.580078125,-34562.00390625,904.2999877929688,-5728.89111328125,37260.9375,16300.796875,25914.037109375,-23301.212890625,-1882.4730224609375,35317.0234375,-373359.6875,15379.8642578125,36244.85546875,-37892.21484375,14835.4501953125,-5292.51611328125,11059.403466365
-31555.830078125,14554.3935546875,22226.115234375,2474.4150390625,25327.603515625,-6449.26220703125,-59407.3125,-56464.0078125,22190.732421875,-2928.052001953125,7768.52294921875,18218.478515625,-25332.609375,44723.1171875,-330958.5625,19008.330078125,9881.984375,-34562.203125,876.9130249023438,-5725.8349609375,37261.60546875,16289.318359375,25902.154296875,-23324.763671875,-1881.68603515625,35319.8125,-373360.375,15376.8525390625,36231.35546875,-37893.01171875,14815.2548828125,-5293.294921875,11059.405466365
-31581.79296875,14534.720703125,22178.951171875,2459.3759765625,25299.69921875,-6482.580078125,-59431.97265625,-56489.0625,22161.576171875,-2979.887939453125,7748.21484375,18180.6015625,-25345.087890625,44702.4921875,-330991.78125,18981.9921875,9901.7197265625,-34588.1328125,848.7080078125,-5753.10595703125,37242.734375,16263.6806640625,25903.525390625,-23357.888671875,-1915.9439697265625,35296.76953125,-373395.34375,15349.03125,36202.03515625,-37932.09765625,14792.7333984375,-5332.0859375,11059.407466364999
-31583.220703125,14530.939453125,22191.34765625,2455.722900390625,25300.52734375,-6475.87109375,-59432.70703125,-56487.328125,22165.408203125,-2960.701904296875,7746.705078125,18191.234375,-25338.302734375,44708.21484375,-330991.75,18982.3984375,9893.5810546875,-34587.5078125,860.5770263671875,-5750.54296875,37243.38671875,16269.1513671875,25896.107421875,-23344.189453125,-1909.0860595703125,35299.49609375,-373395.03125,15350.521484375,36206.171875,-37923.83203125,14795.0595703125,-5325.330078125,11059.409466365
-31565.546875,14543.3076171875,22234.1171875,2463.23193359375,25322.9609375,-6444.18505859375,-59415.51171875,-56465.6796875,22188.056640625,-2908.7470703125,7760.93896484375,18211.572265625,-25366.826171875,44697.27734375,-330969.25,18994.23046875,9822.4248046875,-34574.1484375,856.1240234375,-5727.07080078125,37249.26953125,16275.02734375,25852.341796875,-23335.529296875,-1875.4649658203125,35316.87109375,-373367.21875,15364.8974609375,36209.12890625,-37883.0078125,14783.5634765625,-5285.12109375,11059.411466365
-31554.66796875,14555.1240234375,22240.8046875,2473.5400390625,25335.474609375,-6429.71923828125,-59402.9765625,-56452.89453125,22194.666015625,-2902.2548828125,7772.97216796875,18204.619140625,-25388.89453125,44680.46484375,-330958.21875,18996.732421875,9810.0947265625,-34569.30859375,836.4600219726562,-5715.0,37252.30078125,16268.8916015625,25843.70703125,-23351.357421875,-1861.2080078125,35325.46875,-373356.0,15369.1181640625,36200.2265625,-37866.26171875,14769.951171875,-5269.06396484375,11059.413466365
-31560.80078125,14554.259765625,22209.083984375,2476.446044921875,25325.943359375,-6447.18798828125,-59408.05078125,-56460.86328125,22180.279296875,-2940.5810546875,7769.666015625,18179.951171875,-25371.408203125,44680.390625,-330971.84375,18987.802734375,9873.0712890625,-34578.80859375,830.6909790039062,-5724.22900390625,37249.6953125,16259.3681640625,25880.89453125,-23366.306640625,-1878.737060546875,35319.1171875,-373373.28125,15360.25,36191.93359375,-37885.40234375,14772.7509765625,-5290.91796875,11059.415466365
-31580.009765625,14540.4423828125,22158.154296875,2468.049072265625,25299.763671875,-6484.9580078125,-59428.46484375,-56485.03125,22153.923828125,-3000.89306640625,7753.259765625,18156.498046875,-25323.396484375,44698.8984375,-331004.9375,18974.185546875,9964.4189453125,-34595.5234375,845.844970703125,-5751.2509765625,37245.53515625,16256.7353515625,25939.41796875,-23371.546875,-1918.4599609375,35302.62109375,-373410.625,15344.55859375,36192.9140625,-37928.5078125,14792.29296875,-5337.998046875,11059.417466365
-31590.4375,14525.8681640625,22155.869140625,2454.123046875,25284.548828125,-6498.05615234375,-59444.25390625,-56499.09375,22146.97265625,-3001.376953125,7738.5341796875,18172.619140625,-25280.365234375,44729.703125,-331023.09375,18973.611328125,9998.0087890625,-34598.19921875,887.3699951171875,-5766.31494140625,37247.80859375,16272.708984375,25965.056640625,-23342.57421875,-1933.3260498046875,35294.92578125,-373429.40625,15342.7783203125,36212.2578125,-37942.79296875,14822.978515625,-5353.64013671875,11059.419466365
-31573.458984375,14534.5830078125,22203.642578125,2459.506103515625,25303.349609375,-6472.03076171875,-59430.5625,-56483.078125,22170.326171875,-2944.534912109375,7749.5810546875,18210.53515625,-25285.955078125,44742.5078125,-331003.34375,18993.39453125,9935.3056640625,-34577.734375,914.760986328125,-5746.8828125,37261.72265625,16293.9501953125,25935.25390625,-23311.337890625,-1905.2080078125,35310.99609375,-373407.3125,15362.455078125,36234.83984375,-37906.125,14835.1943359375,-5319.52783203125,11059.421466365
-31556.3671875,14550.400390625,22233.056640625,2471.738037109375,25324.78125,-6447.85400390625,-59412.73046875,-56463.2421875,22188.7421875,-2911.197021484375,7765.64794921875,18224.955078125,-25317.408203125,44732.25390625,-330983.90625,19005.3203125,9879.9326171875,-34563.3046875,904.552978515625,-5728.19580078125,37272.1875,16299.248046875,25905.15625,-23309.953125,-1879.614013671875,35327.171875,-373386.78125,15377.94140625,36238.9375,-37876.56640625,14827.173828125,-5290.06005859375,11059.423466365
-31565.947265625,14545.2724609375,22211.962890625,2468.72607421875,25315.669921875,-6457.583984375,-59418.0703125,-56470.0546875,22176.4609375,-2934.22509765625,7759.2919921875,18198.146484375,-25355.056640625,44703.546875,-330996.4375,18990.25,9859.828125,-34576.7421875,867.344970703125,-5735.7880859375,37261.5390625,16276.423828125,25884.28125,-23341.84765625,-1889.760009765625,35316.9609375,-373398.46875,15364.9755859375,36214.4765625,-37889.01953125,14798.7451171875,-5302.61376953125,11059.425466364999
-31583.806640625,14534.5322265625,22173.66796875,2461.6708984375,25295.060546875,-6481.34521484375,-59434.00390625,-56487.265625,22155.31640625,-2975.75390625,7746.38916015625,18170.322265625,-25356.205078125,44692.07421875,-331021.03125,18972.931640625,9891.0654296875,-34594.8359375,849.0579833984375,-5753.81494140625,37251.00390625,16258.0107421875,25898.322265625,-23363.947265625,-1915.1099853515625,35302.7109375,-373425.75,15347.384765625,36194.9296875,-37918.515625,14785.427734375,-5333.0419921875,11059.427466365
-31586.75,14531.6220703125,22185.044921875,2457.5048828125,25296.1015625,-6474.7421875,-59436.546875,-56486.82421875,22158.81640625,-2959.089111328125,7744.81494140625,18180.1015625,-25353.18359375,44694.14453125,-331022.375,18972.603515625,9877.84765625,-34595.34375,857.0440063476562,-5752.15283203125,37250.4140625,16261.9384765625,25888.494140625,-23353.365234375,-1910.698974609375,35304.46484375,-373425.65625,15347.6376953125,36197.828125,-37911.4453125,14783.6103515625,-5325.8798828125,11059.429466365
-31566.9375,14546.255859375,22230.56640625,2467.10888671875,25321.28515625,-6441.1201171875,-59417.03125,-56463.26171875,22184.365234375,-2906.419921875,7760.97900390625,18201.232421875,-25381.41796875,44685.4765625,-330995.9375,18985.185546875,9806.794921875,-34581.07421875,854.7100219726562,-5727.81884765625,37257.82421875,16268.2060546875,25847.73828125,-23343.78125,-1875.83203125,35322.4453125,-373396.46875,15362.78125,36201.20703125,-37869.36328125,14773.748046875,-5284.30712890625,11059.431466365
-31557.91796875,14555.7578125,22235.814453125,2475.409912109375,25330.634765625,-6430.39111328125,-59406.98828125,-56453.04296875,22191.0078125,-2901.094970703125,7770.76123046875,18191.765625,-25403.4453125,44668.2421875,-330986.25,18986.046875,9794.400390625,-34579.51953125,831.68798828125,-5717.7177734375,37256.984375,16259.98828125,25836.384765625,-23360.193359375,-1862.5360107421875,35329.7265625,-373387.65625,15363.7685546875,36190.67578125,-37854.515625,14758.359375,-5270.97802734375,11059.433466365
-31569.001953125,14548.32421875,22199.828125,2472.251953125,25316.20703125,-6453.1728515625,-59418.83203125,-56466.58203125,22171.923828125,-2944.1708984375,7762.57080078125,18162.095703125,-25386.69140625,44664.56640625,-331007.09375,18971.41015625,9859.6025390625,-34592.9453125,820.6599731445312,-5733.337890625,37250.07421875,16247.0166015625,25871.259765625,-23381.396484375,-1884.866943359375,35317.87109375,-373410.71875,15350.3583984375,36178.58203125,-37879.85546875,14757.2958984375,-5298.201171875,11059.435466365
-31592.89453125,14527.91015625,22143.6953125,2457.462890625,25283.751953125,-6495.37890625,-59444.859375,-56497.203125,22140.8359375,-3008.139892578125,7739.2490234375,18134.50390625,-25340.46484375,44683.9921875,-331048.65625,18951.36328125,9957.2919921875,-34613.65625,834.8209838867188,-5766.76806640625,37240.95703125,16240.880859375,25929.234375,-23389.572265625,-1930.0849609375,35293.78515625,-373453.84375,15331.056640625,36175.20703125,-37929.99609375,14775.9091796875,-5351.4267578125,11059.437466365
-31595.580078125,14520.3046875,22148.525390625,2450.825927734375,25276.1484375,-6502.47412109375,-59453.26953125,-56504.7265625,22141.55859375,-3002.381103515625,7732.26806640625,18160.861328125,-25288.248046875,44725.11328125,-331058.46875,18959.279296875,10002.078125,-34608.1953125,887.6599731445312,-5773.5068359375,37251.6796875,16265.2939453125,25963.494140625,-23351.4921875,-1938.2340087890625,35294.07421875,-373465.09375,15337.7021484375,36204.2578125,-37935.13671875,14815.6494140625,-5359.0439453125,11059.439466365
-31569.962890625,14539.24609375,22204.91796875,2466.0380859375,25304.40234375,-6466.09423828125,-59429.3203125,-56478.04296875,22174.29296875,-2939.97412109375,7753.9228515625,18207.955078125,-25289.234375,44743.65234375,-331028.34375,18989.21484375,9936.6796875,-34579.93359375,920.280029296875,-5746.35791015625,37274.25,16293.3876953125,25935.28515625,-23313.83984375,-1901.280029296875,35319.74609375,-373433.5625,15368.4404296875,36234.98828125,-37889.25,14835.6533203125,-5314.6337890625,11059.441466365
-31559.89453125,14548.73828125,22228.703125,2472.407958984375,25319.37890625,-6446.81201171875,-59417.68359375,-56464.69921875,22186.279296875,-2914.43896484375,7764.0361328125,18215.134765625,-25326.55859375,44727.2421875,-331015.40625,18998.5625,9873.0615234375,-34570.0078125,903.6160278320312,-5732.796875,37277.546875,16290.498046875,25897.140625,-23320.298828125,-1881.8890380859375,35328.5703125,-373419.09375,15376.4443359375,36231.796875,-37865.3828125,14819.1865234375,-5293.01513671875,11059.443466364999
-31564.08984375,14548.802734375,22213.2421875,2473.99609375,25316.421875,-6451.8291015625,-59418.859375,-56466.83203125,22179.5,-2931.261962890625,7763.47802734375,18194.248046875,-25359.775390625,44703.22265625,-331022.96875,18990.41015625,9856.125,-34577.28515625,872.4860229492188,-5734.798828125,37270.64453125,16273.5478515625,25883.76953125,-23348.37109375,-1887.387939453125,35323.87890625,-373426.0625,15367.568359375,36211.83984375,-37872.578125,14794.083984375,-5301.01611328125,11059.445466365
-31585.814453125,14532.814453125,22170.109375,2461.967041015625,25290.90234375,-6482.98486328125,-59439.2421875,-56488.8125,22154.4375,-2977.514892578125,7744.31396484375,18160.2890625,-25371.39453125,44688.0078125,-331053.15625,18968.84375,9882.291015625,-34600.984375,850.1099853515625,-5757.22314453125,37255.9296875,16252.1884765625,25893.140625,-23377.2734375,-1917.8480224609375,35303.56640625,-373457.40625,15344.9833984375,36188.7421875,-37908.390625,14777.0673828125,-5335.64794921875,11059.447466365
-31586.705078125,14530.5732421875,22181.849609375,2457.5849609375,25292.19921875,-6475.8662109375,-59439.7265625,-56488.1328125,22158.693359375,-2958.05810546875,7743.89111328125,18173.6171875,-25366.14453125,44694.30078125,-331053.8125,18972.75,9875.2939453125,-34599.24609375,862.22900390625,-5755.69287109375,37258.69140625,16258.1083984375,25888.640625,-23365.45703125,-1911.5360107421875,35306.73828125,-373456.9375,15346.41796875,36193.453125,-37899.38671875,14781.447265625,-5327.923828125,11059.449466365
-31561.216796875,14551.51953125,22232.8203125,2473.572998046875,25322.14453125,-6435.1328125,-59415.5546875,-56458.6953125,22189.01953125,-2899.2919921875,7766.23291015625,18201.638671875,-25386.439453125,44688.85546875,-331021.8125,18993.3828125,9808.779296875,-34576.3046875,865.8469848632812,-5725.6298828125,37272.1171875,16270.759765625,25850.62890625,-23350.4609375,-1869.89599609375,35331.58984375,-373421.46875,15368.5439453125,36203.5078125,-37850.56640625,14775.0498046875,-5279.0400390625,11059.451466364999
-31557.087890625,14555.009765625,22233.232421875,2476.678955078125,25326.6796875,-6430.47607421875,-59411.31640625,-56453.984375,22189.677734375,-2899.985107421875,7770.01513671875,18187.568359375,-25410.763671875,44665.55859375,-331018.21875,18989.970703125,9793.90234375,-34577.74609375,838.7930297851562,-5720.76904296875,37268.2578125,16258.51953125,25834.767578125,-23371.921875,-1862.987060546875,35333.00390625,-373418.28125,15366.537109375,36187.24609375,-37840.33203125,14753.888671875,-5271.1318359375,11059.453466365
-31561.8359375,14554.564453125,22204.69140625,2479.9970703125,25319.51953125,-6445.39404296875,-59415.4765625,-56460.31640625,22177.248046875,-2936.677001953125,7768.541015625,18166.7109375,-25385.45703125,44670.1171875,-331030.875,18985.453125,9865.0078125,-34585.74609375,834.7379760742188,-5729.60205078125,37268.14453125,16252.205078125,25876.36328125,-23388.49609375,-1879.1080322265625,35327.71875,-373433.625,15358.666015625,36182.5546875,-37858.25,14759.9970703125,-5290.68603515625,11059.455466365
-31579.212890625,14541.638671875,22156.716796875,2472.988037109375,25293.7734375,-6480.3701171875,-59432.953125,-56482.65234375,22151.955078125,-2995.2119140625,7753.80908203125,18145.21875,-25333.18359375,44693.90234375,-331062.875,18973.47265625,9963.0419921875,-34597.546875,850.10400390625,-5754.783203125,37267.66015625,16251.2470703125,25938.44140625,-23391.609375,-1916.240966796875,35311.75,-373468.875,15344.7626953125,36187.26953125,-37900.6015625,14784.9912109375,-5336.18310546875,11059.457466365
-31588.337890625,14529.3310546875,22156.376953125,2461.2939453125,25281.490234375,-6492.19677734375,-59446.7578125,-56495.7421875,22148.22265625,-2994.2900390625,7740.59619140625,18165.46875,-25278.919921875,44731.87109375,-331079.84375,18977.29296875,10008.7080078125,-34598.22265625,895.8809814453125,-5768.2880859375,37273.2109375,16271.2470703125,25971.884765625,-23355.111328125,-1931.302978515625,35306.1640625,-373486.71875,15348.330078125,36212.671875,-37911.3046875,14822.41796875,-5350.94921875,11059.459466365
-31571.341796875,14539.0849609375,22203.408203125,2465.455078125,25300.541015625,-6465.4580078125,-59432.4375,-56478.80078125,22171.537109375,-2938.85888671875,7751.9248046875,18205.736328125,-25279.775390625,44749.11328125,-331060.96875,18999.28515625,9950.6181640625,-34578.41015625,924.9509887695312,-5749.72607421875,37288.14453125,16294.228515625,25945.537109375,-23320.140625,-1904.7850341796875,35321.96484375,-373465.15625,15369.947265625,36238.67578125,-37874.10546875,14840.0576171875,-5317.2001953125,11059.461466364999
-31558.28125,14549.796875,22228.259765625,2472.822021484375,25315.36328125,-6446.5419921875,-59420.7109375,-56465.5703125,22185.984375,-2910.052001953125,7763.740234375,18217.3359375,-25313.072265625,44737.25390625,-331047.6875,19010.23828125,9891.376953125,-34566.93359375,912.0280151367188,-5735.466796875,37295.66796875,16296.3681640625,25910.677734375,-23321.892578125,-1884.8299560546875,35332.63671875,-373449.59375,15380.8994140625,36240.03125,-37850.6796875,14830.2744140625,-5293.9658203125,11059.463466365
-31553.904296875,14558.6328125,22222.970703125,2484.218017578125,25320.673828125,-6442.31298828125,-59414.1171875,-56458.80078125,22188.37109375,-2917.366943359375,7771.65576171875,18205.39453125,-25339.212890625,44721.62890625,-331044.375,19012.029296875,9875.2255859375,-34564.84765625,888.614013671875,-5729.72998046875,37298.59765625,16287.1142578125,25899.337890625,-23341.0234375,-1880.925048828125,35337.55078125,-373447.46875,15381.716796875,36229.58203125,-37847.29296875,14815.3818359375,-5291.505859375,11059.465466365
-31572.169921875,14547.6279296875,22183.669921875,2476.44091796875,25299.498046875,-6468.18212890625,-59430.55859375,-56477.0625,22166.787109375,-2959.693115234375,7758.7890625,18172.701171875,-25347.4375,44705.33203125,-331069.1875,18994.353515625,9899.0263671875,-34583.32421875,867.052001953125,-5749.916015625,37284.34765625,16266.1171875,25906.8984375,-23365.205078125,-1906.970947265625,35322.38671875,-373474.90625,15361.11328125,36208.609375,-37877.7734375,14801.333984375,-5321.48583984375,11059.467466365
-31586.5546875,14530.6669921875,22181.8203125,2458.430908203125,25286.814453125,-6475.72119140625,-59445.07421875,-56490.1484375,22157.13671875,-2957.25,7743.7138671875,18168.744140625,-25354.111328125,44697.71484375,-331083.8125,18982.53515625,9884.400390625,-34595.8359375,868.5989990234375,-5761.31689453125,37270.60546875,16256.9013671875,25889.029296875,-23368.02734375,-1915.718017578125,35309.7109375,-373488.75,15348.341796875,36199.16015625,-37883.02734375,14793.4775390625,-5328.92578125,11059.469466364999
-31574.1640625,14538.544921875,22222.302734375,2460.575927734375,25304.962890625,-6448.955078125,-59432.13671875,-56473.82421875,22174.6796875,-2909.18603515625,7753.11083984375,18187.453125,-25382.69921875,44685.76171875,-331066.03125,18992.966796875,9818.0048828125,-34584.703125,867.1749877929688,-5743.65380859375,37272.296875,16259.384765625,25847.134765625,-23361.068359375,-1887.48095703125,35322.47265625,-373465.53125,15360.3916015625,36199.9765625,-37845.609375,14781.7685546875,-5293.203125,11059.471466365
-31566.451171875,14547.28515625,22228.193359375,2468.69091796875,25314.8515625,-6437.748046875,-59423.50390625,-56463.64453125,22181.537109375,-2903.2060546875,7761.6240234375,18178.611328125,-25405.2421875,44668.59765625,-331057.5,18996.87109375,9804.9453125,-34581.03515625,847.166015625,-5733.580078125,37272.7421875,16252.796875,25836.3828125,-23376.505859375,-1875.134033203125,35328.19140625,-373457.75,15363.22265625,36189.23828125,-37830.7578125,14765.548828125,-5279.65576171875,11059.473466365
-31570.900390625,14545.845703125,22196.357421875,2471.93603515625,25305.337890625,-6453.423828125,-59429.05078125,-56470.77734375,22169.87890625,-2941.282958984375,7759.0400390625,18156.099609375,-25386.923828125,44670.828125,-331071.5625,18990.345703125,9869.3740234375,-34589.19140625,839.3400268554688,-5743.7861328125,37271.6796875,16247.482421875,25874.392578125,-23392.236328125,-1891.842041015625,35321.75,-373475.25,15354.8330078125,36181.59765625,-37849.83984375,14767.0712890625,-5300.31884765625,11059.475466365
-31584.837890625,14536.888671875,22151.3046875,2468.14794921875,25283.837890625,-6486.2109375,-59444.875,-56490.546875,22149.08203125,-2997.0029296875,7746.27099609375,18138.826171875,-25335.0078125,44695.60546875,-331101.1875,18982.37109375,9965.60546875,-34601.85546875,858.5250244140625,-5766.671875,37272.78515625,16248.2626953125,25936.751953125,-23392.734375,-1926.1109619140625,35308.875,-373507.71875,15343.564453125,36187.50390625,-37888.9765625,14791.197265625,-5343.46923828125,11059.477466365
-31589.4140625,14529.775390625,22155.37109375,2460.85009765625,25275.798828125,-6493.3662109375,-59452.703125,-56498.37109375,22147.4140625,-2992.888916015625,7739.10791015625,18161.869140625,-25281.623046875,44734.4375,-331112.5,18989.15234375,10008.623046875,-34595.421875,907.4920043945312,-5775.4912109375,37282.01171875,16270.69140625,25970.07421875,-23357.03125,-1936.157958984375,35308.1953125,-373519.34375,15348.447265625,36215.9609375,-37895.48828125,14829.8935546875,-5352.583984375,11059.479466365
-31567.65625,14545.0244140625,22208.71875,2472.467041015625,25301.462890625,-6460.55078125,-59433.00390625,-56475.92578125,22175.796875,-2934.074951171875,7756.93994140625,18207.544921875,-25285.515625,44751.45703125,-331086.53125,19014.603515625,9944.7998046875,-34568.56640625,933.166015625,-5750.85107421875,37300.66796875,16295.736328125,25941.05859375,-23323.30078125,-1903.0,35331.265625,-373490.84375,15375.15625,36244.703125,-37852.87109375,14846.216796875,-5312.2490234375,11059.481466365
-31558.658203125,14552.517578125,22229.951171875,2477.0810546875,25313.513671875,-6444.6279296875,-59423.6171875,-56464.52734375,22187.642578125,-2909.39404296875,7764.60693359375,18212.728515625,-25325.5859375,44732.1015625,-331075.0625,19020.224609375,9879.826171875,-34562.6171875,911.0549926757812,-5738.98193359375,37300.75390625,16291.5224609375,25902.33203125,-23332.056640625,-1885.7950439453125,35337.87890625,-373478.3125,15381.990234375,36239.26171875,-37831.234375,14825.9677734375,-5291.78076171875,11059.483466365
-31566.728515625,14548.42578125,22210.681640625,2474.14599609375,25305.759765625,-6453.9130859375,-59428.92578125,-56470.234375,22176.818359375,-2929.678955078125,7759.88916015625,18186.833984375,-25359.39453125,44704.125,-331085.96875,19009.3046875,9859.6591796875,-34575.39453125,873.56201171875,-5746.72802734375,37289.078125,16269.7060546875,25883.306640625,-23364.955078125,-1895.001953125,35328.265625,-373490.71875,15369.2529296875,36215.8359375,-37840.48828125,14796.568359375,-5302.34814453125,11059.485466365
-31575.294921875,14545.8046875,22182.083984375,2476.069091796875,25295.38671875,-6468.69287109375,-59435.1796875,-56478.22265625,22165.66796875,-2963.077880859375,7756.40185546875,18166.916015625,-25354.10546875,44701.2265625,-331100.875,19002.83984375,9895.15625,-34585.9765625,860.4619750976562,-5756.31103515625,37285.8046875,16260.8720703125,25903.0859375,-23380.6640625,-1912.2850341796875,35322.41796875,-373507.90625,15358.1748046875,36204.69140625,-37860.9609375,14791.4833984375,-5325.4169921875,11059.487466364999
-31578.931640625,14541.4462890625,22188.197265625,2469.85009765625,25293.294921875,-6466.5927734375,-59440.6796875,-56481.54296875,22165.52734375,-2950.72900390625,7752.98291015625,18173.091796875,-25355.478515625,44701.02734375,-331105.03125,19001.505859375,9883.4365234375,-34589.08203125,865.5819702148438,-5757.84423828125,37282.45703125,16259.9833984375,25891.076171875,-23373.58203125,-1910.3280029296875,35321.69140625,-373511.15625,15354.6162109375,36203.9296875,-37855.2890625,14788.11328125,-5321.6259765625,11059.489466365
-31566.78515625,14548.8193359375,22226.2109375,2471.073974609375,25309.755859375,-6440.505859375,-59428.84765625,-56465.546875,22182.970703125,-2904.574951171875,7761.8271484375,18190.931640625,-25388.33203125,44686.81640625,-331088.53125,19009.263671875,9814.8310546875,-34581.26171875,857.2509765625,-5740.048828125,37281.42578125,16260.6123046875,25847.51953125,-23369.4453125,-1882.70703125,35331.234375,-373488.375,15362.646484375,36203.02734375,-37820.359375,14773.056640625,-5285.85009765625,11059.491466365
-31563.669921875,14551.544921875,22227.607421875,2473.662109375,25315.015625,-6435.47021484375,-59423.83984375,-56460.453125,22182.505859375,-2904.822998046875,7763.92822265625,18177.96875,-25419.068359375,44664.60546875,-331084.375,19006.6796875,9795.93359375,-34584.859375,831.5239868164062,-5735.7099609375,37275.40625,16247.1259765625,25831.6875,-23389.7421875,-1875.8819580078125,35332.078125,-373484.875,15359.35546875,36186.66796875,-37811.09375,14752.1494140625,-5277.1591796875,11059.493466365
-31575.876953125,14543.6865234375,22189.7265625,2470.365966796875,25298.607421875,-6458.01123046875,-59435.7421875,-56475.44921875,22163.498046875,-2948.7529296875,7754.22021484375,18148.93359375,-25405.3359375,44660.16015625,-331105.40625,18993.03125,9855.9501953125,-34600.07421875,821.4359741210938,-5751.63818359375,37265.30078125,16233.1240234375,25862.51953125,-23411.07421875,-1900.4439697265625,35318.76171875,-373509.46875,15343.1884765625,36172.80078125,-37837.43359375,14749.44921875,-5305.125,11059.495466365
-31591.935546875,14532.73046875,22142.689453125,2465.35107421875,25274.068359375,-6492.0830078125,-59452.83984375,-56495.453125,22140.74609375,-3005.43603515625,7741.59423828125,18127.330078125,-25351.580078125,44681.81640625,-331134.9375,18980.86328125,9952.80078125,-34613.9609375,842.9819946289062,-5776.23779296875,37262.17578125,16234.169921875,25921.486328125,-23412.380859375,-1936.81298828125,35303.61328125,-373543.8125,15329.75390625,36175.70703125,-37877.1171875,14772.96484375,-5348.40087890625,11059.497466365
-31598.853515625,14523.470703125,22143.775390625,2455.988037109375,25264.69140625,-6501.97216796875,-59461.78125,-56505.80859375,22137.94921875,-3003.06103515625,7732.72314453125,18145.62109375,-25301.46875,44715.984375,-331147.8125,18985.078125,9990.8291015625,-34611.90625,889.4500122070312,-5786.06298828125,37269.2109375,16254.8037109375,25949.283203125,-23377.330078125,-1948.02294921875,35300.3203125,-373557.40625,15333.1083984375,36199.109375,-37883.625,14807.53515625,-5358.880859375,11059.499466365
-31587.748046875,14528.642578125,22187.3984375,2456.044921875,25280.31640625,-6478.06689453125,-59451.9375,-56492.80859375,22158.150390625,-2952.84912109375,7740.3662109375,18181.349609375,-25311.220703125,44724.75,-331132.65625,19002.693359375,9923.5224609375,-34595.953125,910.8519897460938,-5771.33203125,37280.44921875,16272.6396484375,25917.11328125,-23350.302734375,-1925.4110107421875,35311.60546875,-373538.71875,15349.4091796875,36218.81640625,-37851.33203125,14815.771484375,-5328.7080078125,11059.501466365
-31570.294921875,14545.2421875,22216.19140625,2469.534912109375,25301.65625,-6452.51708984375,-59434.71875,-56472.09375,22177.61328125,-2919.806884765625,7756.10693359375,18195.708984375,-25343.689453125,44714.61328125,-331112.5,19017.234375,9862.0986328125,-34582.06640625,902.6259765625,-5751.81591796875,37290.44921875,16279.021484375,25888.490234375,-23350.697265625,-1899.1280517578125,35328.10546875,-373517.84375,15364.4931640625,36223.18359375,-37821.4453125,14806.505859375,-5299.62109375,11059.503466365
-31570.634765625,14549.349609375,22204.619140625,2475.0791015625,25301.849609375,-6453.02490234375,-59431.48828125,-56469.06640625,22176.201171875,-2933.85791015625,7760.17919921875,18176.9453125,-25376.66796875,44690.703125,-331114.75,19014.46875,9834.6435546875,-34586.328125,870.906982421875,-5750.1328125,37287.34765625,16264.0888671875,25870.05859375,-23377.517578125,-1899.991943359375,35326.8046875,-373520.53125,15359.5068359375,36204.0390625,-37823.62890625,14781.552734375,-5301.27685546875,11059.505466364999
-31595.287109375,14530.9443359375,22158.8046875,2461.632080078125,25274.740234375,-6484.162109375,-59453.328125,-56494.63671875,22149.234375,-2980.9990234375,7740.26220703125,18140.119140625,-25385.796875,44671.1640625,-331145.75,18990.505859375,9862.5107421875,-34611.78125,845.2739868164062,-5774.5458984375,37268.8828125,16239.4833984375,25875.11328125,-23407.244140625,-1931.9580078125,35304.765625,-373554.0625,15334.2900390625,36178.53125,-37859.25,14760.041015625,-5339.134765625,11059.507466365
-31595.89453125,14529.6630859375,22166.751953125,2458.298095703125,25275.3203125,-6478.76318359375,-59454.92578125,-56494.234375,22152.078125,-2964.64697265625,7738.73193359375,18147.2734375,-25382.216796875,44674.19921875,-331146.84375,18990.90625,9856.1357421875,-34610.90234375,856.2940063476562,-5772.7177734375,37267.6875,16242.2197265625,25866.392578125,-23397.064453125,-1926.865966796875,35304.7734375,-373554.0625,15334.650390625,36180.08984375,-37850.78125,14760.05078125,-5332.955078125,11059.509466365
-31577.7734375,14544.6787109375,22212.388671875,2467.251953125,25301.431640625,-6444.42578125,-59437.1171875,-56471.12109375,22176.751953125,-2911.677001953125,7755.0498046875,18168.998046875,-25410.19140625,44664.54296875,-331120.59375,19004.7734375,9789.4833984375,-34594.5078125,855.5070190429688,-5748.03515625,37274.25,16250.412109375,25827.310546875,-23386.794921875,-1893.041015625,35322.26171875,-373525.6875,15350.52734375,36184.80078125,-37807.50390625,14751.1943359375,-5289.7861328125,11059.511466365
-31569.55859375,14552.326171875,22217.2890625,2474.89599609375,25310.5078125,-6433.994140625,-59426.90625,-56461.31640625,22180.89453125,-2907.79296875,7764.044921875,18158.408203125,-25436.55859375,44644.328125,-331113.28125,19005.220703125,9769.1181640625,-34592.32421875,831.1900024414062,-5738.5927734375,37272.73828125,16242.1142578125,25815.65625,-23403.51953125,-1881.3909912109375,35327.58203125,-373517.3125,15351.43359375,36172.23046875,-37792.484375,14732.7099609375,-5277.47998046875,11059.513466365
-31574.45703125,14551.44921875,22187.923828125,2477.97412109375,25301.60546875,-6449.708984375,-59430.1640625,-56468.0703125,22168.384765625,-2945.702880859375,7761.65380859375,18135.390625,-25419.71484375,44645.296875,-331126.625,18997.560546875,9832.630859375,-34599.78125,821.8889770507812,-5744.9501953125,37270.91015625,16234.1171875,25853.14453125,-23418.724609375,-1896.7740478515625,35321.79296875,-373531.65625,15343.1435546875,36165.6875,-37810.5,14733.708984375,-5297.48583984375,11059.515466365
-31592.916015625,14538.849609375,22139.30859375,2472.52392578125,25277.21875,-6484.23779296875,-59448.26171875,-56490.4609375,22142.88671875,-3003.23193359375,7746.24609375,18110.8671875,-25372.078125,44665.36328125,-331157.03125,18983.96875,9922.73828125,-34615.921875,832.4760131835938,-5769.55517578125,37267.00390625,16230.724609375,25908.9453125,-23422.79296875,-1934.14501953125,35304.6640625,-373566.0625,15327.4873046875,36165.625,-37851.6640625,14752.041015625,-5341.505859375,11059.517466365
-31597.9140625,14531.80078125,22141.689453125,2465.60107421875,25269.171875,-6491.6630859375,-59456.171875,-56498.86328125,22140.318359375,-3000.048095703125,7739.5927734375,18131.51953125,-25323.47265625,44700.6484375,-331167.65625,18988.57421875,9959.4912109375,-34612.39453125,874.02001953125,-5778.76220703125,37272.93359375,16249.935546875,25939.533203125,-23389.064453125,-1943.6099853515625,35301.734375,-373578.28125,15330.802734375,36189.984375,-37857.62890625,14786.3212890625,-5350.25,11059.519466365
-31580.51171875,14543.4658203125,22189.8359375,2471.866943359375,25291.005859375,-6461.6318359375,-59441.390625,-56479.6484375,22165.638671875,-2944.56494140625,7752.1181640625,18171.5,-25329.23046875,44714.0078125,-331146.15625,19008.03125,9896.0263671875,-34591.3203125,894.47802734375,-5758.6201171875,37288.375,16271.9716796875,25911.953125,-23358.296875,-1913.833984375,35320.2734375,-373555.40625,15351.6162109375,36213.08203125,-37819.31640625,14799.490234375,-5314.341796875,11059.521466365
-31579.755859375,14541.6904296875,22202.876953125,2467.844970703125,25294.509765625,-6454.39794921875,-59440.2265625,-56476.51953125,22169.74609375,-2927.8759765625,7751.626953125,18170.91015625,-25369.921875,44692.27734375,-331144.9375,19005.634765625,9835.22265625,-34594.21875,871.7269897460938,-5754.76611328125,37283.44921875,16264.138671875,25873.0390625,-23370.064453125,-1905.2879638671875,35318.2734375,-373551.09375,15350.068359375,36203.3046875,-37806.609375,14777.234375,-5301.4638671875,11059.523466364999
-31580.7890625,14545.548828125,22192.787109375,2472.794921875,25294.232421875,-6455.98388671875,-59438.14453125,-56475.71484375,22167.052734375,-2938.965087890625,7754.52294921875,18156.98046875,-25392.087890625,44677.04296875,-331148.125,19002.3203125,9829.9033203125,-34597.29296875,849.7239990234375,-5753.6748046875,37279.68359375,16254.490234375,25865.537109375,-23389.978515625,-1906.9189453125,35316.9296875,-373554.78125,15345.296875,36191.1015625,-37809.38671875,14763.0439453125,-5304.67919921875,11059.525466365
-31596.228515625,14534.6669921875,22155.099609375,2467.2451171875,25275.04296875,-6478.43603515625,-59452.92578125,-56492.30078125,22147.724609375,-2979.2890625,7742.25390625,18128.15625,-25392.078125,44668.53125,-331172.78125,18985.056640625,9861.505859375,-34614.6484375,834.0599975585938,-5770.5498046875,37269.12109375,16238.6279296875,25879.857421875,-23411.791015625,-1932.467041015625,35303.19921875,-373580.375,15326.6669921875,36174.31640625,-37838.1875,14751.869140625,-5334.81494140625,11059.527466365
-31601.9453125,14527.048828125,22160.810546875,2457.72412109375,25269.818359375,-6478.68896484375,-59460.453125,-56496.99609375,22147.421875,-2968.279052734375,7735.841796875,18134.3359375,-25384.197265625,44674.2109375,-331178.71875,18980.7890625,9858.060546875,-34619.78125,844.1010131835938,-5774.81494140625,37264.9921875,16240.7548828125,25874.931640625,-23401.697265625,-1933.3260498046875,35299.21484375,-373586.84375,15321.8134765625,36176.16796875,-37835.921875,14752.82421875,-5334.31005859375,11059.529466365
-31580.107421875,14543.88671875,22208.884765625,2468.69189453125,25296.328125,-6443.0341796875,-59439.07421875,-56472.65625,22174.3671875,-2913.152099609375,7753.72900390625,18163.8359375,-25402.306640625,44674.265625,-331150.84375,18997.755859375,9798.9873046875,-34600.61328125,849.3670043945312,-5748.494140625,37274.49609375,16252.7509765625,25842.79296875,-23382.87109375,-1897.197998046875,35319.69140625,-373556.78125,15339.77734375,36186.4296875,-37791.28515625,14751.0888671875,-5291.1650390625,11059.531466365
-31564.158203125,14558.7177734375,22221.455078125,2483.611083984375,25313.580078125,-6426.18798828125,-59423.24609375,-56455.83984375,22186.09375,-2899.131103515625,7769.48681640625,18165.740234375,-25417.919921875,44664.90625,-331135.40625,19005.98046875,9788.7734375,-34590.77734375,835.3980102539062,-5731.8017578125,37281.09765625,16251.3369140625,25837.947265625,-23390.908203125,-1879.9549560546875,35332.40234375,-373541.4375,15348.130859375,36182.9921875,-37769.796875,14744.2734375,-5270.966796875,11059.533466365
-31569.34375,14556.4013671875,22191.369140625,2484.550048828125,25303.79296875,-6441.93310546875,-59429.0859375,-56463.53125,22171.98828125,-2936.33203125,7765.8720703125,18144.8828125,-25401.26953125,44666.5234375,-331150.75,18997.826171875,9850.6259765625,-34599.953125,828.5070190429688,-5740.5390625,37280.65625,16245.3291015625,25873.611328125,-23404.87109375,-1896.073974609375,35324.17578125,-373558.03125,15340.919921875,36175.82421875,-37788.3828125,14746.83203125,-5293.01123046875,11059.535466365
-31586.4921875,14543.361328125,22143.8359375,2478.110107421875,25277.712890625,-6475.77783203125,-59447.32421875,-56486.375,22147.44140625,-2993.955078125,7750.48193359375,18122.8359375,-25350.91015625,44688.22265625,-331182.28125,18986.27734375,9942.86328125,-34614.296875,842.7039794921875,-5764.40283203125,37277.984375,16245.013671875,25931.455078125,-23403.73828125,-1932.31494140625,35309.08984375,-373594.15625,15326.11328125,36178.75390625,-37828.87109375,14767.490234375,-5337.42578125,11059.537466365
-31589.087890625,14539.12109375,22149.515625,2473.906005859375,25273.12890625,-6481.09716796875,-59452.484375,-56492.06640625,22147.744140625,-2985.9580078125,7745.9951171875,18148.521484375,-25298.998046875,44726.99609375,-331190.6875,18992.9765625,9978.8134765625,-34607.0625,887.9240112304688,-5769.72705078125,37287.046875,16267.6015625,25961.93359375,-23365.69140625,-1939.135986328125,35309.29296875,-373602.90625,15334.8037109375,36206.34765625,-37831.515625,14804.0498046875,-5343.130859375,11059.539466365
-31569.431640625,14553.337890625,22201.02734375,2483.48291015625,25297.2265625,-6449.72021484375,-59433.58203125,-56470.5625,22172.98828125,-2926.48388671875,7761.98876953125,18191.60546875,-25308.2265625,44740.54296875,-331166.65625,19015.4375,9911.4658203125,-34584.8125,910.4760131835938,-5745.4921875,37303.32421875,16290.2734375,25928.830078125,-23332.681640625,-1907.39404296875,35328.46484375,-373575.9375,15359.3095703125,36231.40234375,-37790.58984375,14816.25,-5302.98583984375,11059.541466364999
-31563.501953125,14557.2568359375,22219.47265625,2484.243896484375,25306.5859375,-6436.52099609375,-59428.0,-56461.94140625,22179.583984375,-2905.31005859375,7766.61083984375,18194.962890625,-25354.01171875,44717.51953125,-331157.8125,19016.935546875,9846.83203125,-34582.80078125,886.843017578125,-5735.98681640625,37301.9453125,16285.5576171875,25885.798828125,-23344.36328125,-1892.2750244140625,35333.72265625,-373566.5,15361.548828125,36223.80859375,-37772.70703125,14796.380859375,-5285.27978515625,11059.543466365
-31576.802734375,14548.2607421875,22192.8984375,2475.846923828125,25293.55859375,-6450.921875,-59439.19921875,-56473.91015625,22163.107421875,-2931.97509765625,7755.35205078125,18163.677734375,-25393.2734375,44682.828125,-331174.40625,18998.826171875,9824.0322265625,-34600.3046875,846.3070068359375,-5747.9501953125,37284.85546875,16258.8857421875,25862.267578125,-23381.935546875,-1907.636962890625,35317.78125,-373583.5625,15344.6015625,36194.515625,-37788.46875,14765.1201171875,-5301.41796875,11059.545466365
-31593.162109375,14536.443359375,22153.1484375,2467.498046875,25272.96875,-6475.85791015625,-59455.09765625,-56492.32421875,22143.236328125,-2974.1298828125,7742.3720703125,18136.09375,-25389.10546875,44672.9453125,-331199.0625,18981.94140625,9865.6904296875,-34617.5625,831.9089965820312,-5766.244140625,37273.47265625,16243.92578125,25879.224609375,-23403.298828125,-1934.3890380859375,35302.23828125,-373609.8125,15325.876953125,36177.25390625,-37818.48828125,14755.5283203125,-5333.4677734375,11059.547466365
-31597.9296875,14530.0908203125,22157.498046875,2459.830078125,25268.4609375,-6475.23779296875,-59460.76953125,-56497.21484375,22143.671875,-2963.89892578125,7735.546875,18143.513671875,-25381.626953125,44678.34375,-331205.8125,18979.306640625,9864.607421875,-34620.9609375,847.8740234375,-5770.14013671875,37270.9296875,16246.392578125,25874.845703125,-23391.4140625,-1935.3790283203125,35298.58203125,-373615.71875,15321.4541015625,36179.421875,-37814.984375,14758.35546875,-5332.23388671875,11059.549466365
-31581.01953125,14542.3701171875,22200.599609375,2466.427001953125,25289.849609375,-6443.64697265625,-59443.71875,-56476.82421875,22165.966796875,-2913.237060546875,7750.2509765625,18166.302734375,-25405.728515625,44672.828125,-331183.0,18992.796875,9798.6787109375,-34607.0546875,854.2919921875,-5746.47900390625,37276.54296875,16252.8876953125,25834.962890625,-23377.732421875,-1902.31005859375,35314.0,-373590.1875,15336.3271484375,36184.390625,-37775.44921875,14752.1552734375,-5293.462890625,11059.551466365
-31575.947265625,14546.083984375,22203.923828125,2469.927001953125,25296.642578125,-6437.6748046875,-59438.37109375,-56471.265625,22166.896484375,-2912.6689453125,7755.11376953125,18155.15234375,-25433.228515625,44651.61328125,-331179.3125,18989.806640625,9778.2861328125,-34607.8046875,833.1580200195312,-5740.880859375,37271.0078125,16243.0693359375,25818.09375,-23393.615234375,-1894.6109619140625,35315.59765625,-373585.90625,15333.4072265625,36171.47265625,-37765.26953125,14733.66015625,-5284.14697265625,11059.553466365
-31579.744140625,14544.8349609375,22174.470703125,2472.64404296875,25286.951171875,-6452.126953125,-59443.5859375,-56478.16796875,22155.294921875,-2950.18505859375,7751.75390625,18133.033203125,-25413.91796875,44652.3359375,-331192.875,18981.802734375,9842.146484375,-34613.921875,827.3300170898438,-5750.408203125,37267.27734375,16236.974609375,25854.03515625,-23409.7421875,-1911.2889404296875,35308.34765625,-373601.0,15325.45703125,36164.328125,-37785.171875,14737.0771484375,-5304.35986328125,11059.555466365
-31600.08984375,14529.1923828125,22124.044921875,2463.68896484375,25259.58203125,-6489.18505859375,-59464.140625,-56502.83984375,22128.494140625,-3011.41796875,7733.72607421875,18109.3359375,-25370.849609375,44668.5078125,-331225.53125,18966.705078125,9926.4599609375,-34630.109375,837.4190063476562,-5777.08984375,37260.28125,16232.3759765625,25905.361328125,-23419.05078125,-1950.48095703125,35289.57421875,-373639.53125,15308.41796875,36163.05859375,-37827.7734375,14754.0302734375,-5351.373046875,11059.557466365
-31606.482421875,14519.939453125,22124.04296875,2454.409912109375,25250.27734375,-6499.9248046875,-59474.515625,-56513.80859375,22126.5703125,-3011.0029296875,7724.14794921875,18129.294921875,-25328.15234375,44701.77734375,-331239.25,18968.76171875,9959.4248046875,-34630.03125,878.468994140625,-5787.458984375,37265.47265625,16250.98046875,25931.06640625,-23389.943359375,-1961.5679931640625,35285.2734375,-373654.28125,15311.4697265625,36185.7421875,-37835.07421875,14785.0859375,-5362.60498046875,11059.559466364999
-31581.068359375,14537.37890625,22180.015625,2466.97607421875,25278.810546875,-6464.85595703125,-59452.375,-56488.3125,22159.5625,-2949.205078125,7743.2861328125,18174.810546875,-25328.609375,44720.59375,-331212.40625,18995.978515625,9900.0927734375,-34601.9375,906.8839721679688,-5760.32080078125,37286.69921875,16277.064453125,25905.8984375,-23354.037109375,-1924.8590087890625,35309.0546875,-373623.5,15340.021484375,36215.75390625,-37790.16796875,14804.302734375,-5318.27001953125,11059.561466365
-31559.935546875,14557.7119140625,22215.384765625,2484.318115234375,25304.34375,-6434.205078125,-59429.7265625,-56462.71875,22182.83203125,-2911.43896484375,7765.328125,18192.361328125,-25356.076171875,44712.0546875,-331186.65625,19014.3359375,9844.43359375,-34582.984375,899.2839965820312,-5733.87109375,37301.01171875,16284.97265625,25875.4609375,-23351.34765625,-1895.2960205078125,35329.99609375,-373596.59375,15358.900390625,36223.3046875,-37755.09375,14798.13671875,-5282.81689453125,11059.563466365
-31560.755859375,14561.5126953125,22200.64453125,2489.81494140625,25303.421875,-6436.6201171875,-59428.6015625,-56461.48046875,22177.822265625,-2926.99609375,7767.89306640625,18170.568359375,-25389.857421875,44685.48828125,-331189.96875,19007.447265625,9823.7041015625,-34588.16015625,867.0750122070312,-5733.38916015625,37294.08984375,16267.0947265625,25856.01171875,-23381.05859375,-1897.9010009765625,35327.35546875,-373601.03125,15352.87890625,36202.61328125,-37757.1328125,14772.3447265625,-5287.2177734375,11059.565466365
-31578.42578125,14548.763671875,22158.408203125,2481.0048828125,25281.80859375,-6462.26416015625,-59445.046875,-56480.8359375,22154.31640625,-2973.93310546875,7753.1982421875,18137.826171875,-25394.8359375,44670.51171875,-331217.03125,18987.1328125,9856.92578125,-34606.39453125,847.7550048828125,-5752.35400390625,37278.54296875,16246.060546875,25867.453125,-23407.822265625,-1925.5980224609375,35307.6953125,-373628.5625,15331.357421875,36179.234375,-37789.94921875,14757.318359375,-5321.3359375,11059.567466364999
-31586.990234375,14538.7001953125,22158.7421875,2469.77001953125,25275.01953125,-6465.18017578125,-59453.33203125,-56488.45703125,22149.505859375,-2968.157958984375,7743.92919921875,18141.6640625,-25390.8203125,44671.671875,-331226.28125,18979.9921875,9852.8232421875,-34611.41015625,854.1859741210938,-5757.375,37273.11328125,16244.6591796875,25862.599609375,-23400.599609375,-1928.4210205078125,35301.1953125,-373638.125,15324.5869140625,36176.53125,-37790.86328125,14757.3037109375,-5323.22900390625,11059.569466365
-31578.31640625,14543.5517578125,22193.869140625,2469.1240234375,25289.04296875,-6442.755859375,-59444.203125,-56477.87109375,22163.38671875,-2924.681884765625,7749.15380859375,18156.412109375,-25418.615234375,44659.296875,-331211.6875,18984.177734375,9783.3134765625,-34604.50390625,848.7730102539062,-5742.31884765625,37271.625,16244.974609375,25821.96875,-23395.125,-1904.8740234375,35308.5703125,-373620.78125,15332.4404296875,36174.25390625,-37758.484375,14743.15234375,-5292.59619140625,11059.571466365
-31567.42578125,14556.1484375,22203.146484375,2480.169921875,25302.287109375,-6429.43603515625,-59432.28125,-56464.00390625,22171.796875,-2915.95703125,7760.7470703125,18153.638671875,-25439.064453125,44644.73046875,-331199.3125,18988.6328125,9768.166015625,-34597.8515625,834.0170288085938,-5728.26611328125,37274.16796875,16239.986328125,25811.9296875,-23405.56640625,-1889.7900390625,35317.87890625,-373609.15625,15339.1865234375,36167.05078125,-37740.08984375,14730.111328125,-5276.14990234375,11059.573466365
-31578.912109375,14548.5283203125,22166.962890625,2477.343017578125,25287.88671875,-6450.52392578125,-59441.5625,-56475.44140625,22153.65234375,-2956.507080078125,7753.2001953125,18125.201171875,-25433.435546875,44637.4609375,-331217.75,18975.6171875,9819.419921875,-34610.76171875,820.3330078125,-5741.6162109375,37264.03125,16226.1494140625,25837.603515625,-23426.232421875,-1910.5909423828125,35306.34765625,-373629.09375,15325.0322265625,36152.5390625,-37763.6015625,14724.1982421875,-5299.876953125,11059.575466365
-31602.4296875,14529.125,22113.087890625,2464.2109375,25255.763671875,-6491.1337890625,-59466.3125,-56505.34765625,22122.763671875,-3020.05810546875,7732.0830078125,18097.560546875,-25394.01953125,44649.453125,-331255.59375,18955.4609375,9903.1728515625,-34631.0546875,826.0980224609375,-5772.8388671875,37251.7421875,16217.5927734375,25886.4375,-23433.95703125,-1954.6739501953125,35283.0625,-373669.9375,15304.99609375,36146.38671875,-37811.37109375,14737.0078125,-5350.44580078125,11059.577466364999
-31607.01953125,14522.04296875,22116.296875,2456.530029296875,25248.73046875,-6498.09814453125,-59475.5703125,-56513.66015625,22121.53125,-3016.054931640625,7724.9912109375,18122.01953125,-25337.443359375,44688.31640625,-331267.40625,18961.1640625,9949.0595703125,-34626.1796875,874.125,-5780.291015625,37259.16015625,16240.802734375,25921.46484375,-23398.650390625,-1963.4320068359375,35281.01171875,-373681.34375,15310.716796875,36172.578125,-37817.3203125,14773.966796875,-5359.1630859375,11059.579466365
-31589.318359375,14531.33203125,22165.232421875,2461.0458984375,25270.837890625,-6469.4482421875,-59460.28515625,-56495.859375,22146.068359375,-2958.06201171875,7738.0322265625,18164.701171875,-25340.5234375,44702.76171875,-331246.0,18981.640625,9885.7021484375,-34604.09375,898.0460205078125,-5759.52294921875,37271.7734375,16263.310546875,25892.23828125,-23368.697265625,-1933.803955078125,35296.96484375,-373658.25,15331.8525390625,36196.2109375,-37778.20703125,14785.9443359375,-5322.5732421875,11059.581466365
-31576.181640625,14543.2685546875,22191.287109375,2469.659912109375,25286.0078125,-6448.40576171875,-59446.92578125,-56479.13671875,22161.3828125,-2927.988037109375,7749.162109375,18177.798828125,-25371.150390625,44689.05859375,-331230.4375,18991.06640625,9829.1796875,-34591.58984375,884.8289794921875,-5743.0830078125,37277.4375,16265.8046875,25860.205078125,-23372.095703125,-1912.2889404296875,35306.98828125,-373640.1875,15343.404296875,36196.7421875,-37752.48046875,14774.001953125,-5298.0751953125,11059.583466365
-31577.708984375,14546.9541015625,22180.0234375,2475.596923828125,25286.27734375,-6449.9970703125,-59444.9140625,-56477.6015625,22155.80078125,-2941.1279296875,7752.373046875,18162.23046875,-25396.244140625,44669.578125,-331233.625,18984.322265625,9817.12890625,-34594.64453125,857.9229736328125,-5741.5322265625,37274.640625,16251.9228515625,25849.044921875,-23394.546875,-1914.35498046875,35304.69921875,-373644.53125,15339.5673828125,36181.87890625,-37756.0546875,14755.0732421875,-5301.119140625,11059.585466364999
-31590.462890625,14540.2177734375,22144.80078125,2472.680908203125,25270.421875,-6470.62109375,-59456.02734375,-56491.19140625,22137.908203125,-2980.444091796875,7742.84912109375,18136.498046875,-25394.90625,44663.36328125,-331253.9375,18970.185546875,9853.587890625,-34608.17578125,845.7379760742188,-5754.93701171875,37267.80859375,16238.837890625,25865.7890625,-23413.119140625,-1936.489013671875,35294.0234375,-373666.90625,15324.6572265625,36166.375,-37783.33984375,14746.302734375,-5328.05078125,11059.587466365
-31602.53125,14527.0302734375,22140.873046875,2457.7470703125,25258.33203125,-6477.27880859375,-59468.609375,-56502.65234375,22130.630859375,-2978.365966796875,7730.541015625,18136.4140625,-25395.77734375,44661.18359375,-331267.5,18960.841796875,9845.853515625,-34617.546875,849.7630004882812,-5765.0390625,37257.6328125,16234.1572265625,25855.34375,-23411.45703125,-1944.616943359375,35283.953125,-373679.84375,15315.0712890625,36159.68359375,-37788.05859375,14741.884765625,-5335.47021484375,11059.589466365
-31582.041015625,14542.033203125,22185.34765625,2468.155029296875,25283.326171875,-6443.9482421875,-59449.74609375,-56479.60546875,22155.95703125,-2925.409912109375,7746.47509765625,18162.81640625,-25416.548828125,44657.03125,-331241.6875,18977.326171875,9784.9169921875,-34598.625,854.8610229492188,-5740.5361328125,37265.63671875,16243.890625,25819.244140625,-23396.51171875,-1910.6650390625,35303.30859375,-373651.21875,15332.7431640625,36168.9765625,-37745.58203125,14739.845703125,-5293.47509765625,11059.591466365
-31574.05859375,14547.357421875,22189.35546875,2472.5380859375,25290.400390625,-6436.0859375,-59442.96875,-56471.28125,22158.72265625,-2921.62890625,7752.283203125,18152.72265625,-25441.400390625,44636.55859375,-331235.4375,18977.005859375,9767.001953125,-34596.23828125,834.926025390625,-5732.0908203125,37260.89453125,16233.6220703125,25804.1328125,-23412.662109375,-1902.8079833984375,35306.12890625,-373645.21875,15332.423828125,36155.89453125,-37733.39453125,14725.625,-5281.89990234375,11059.593466365
-31580.466796875,14543.2490234375,22157.435546875,2472.616943359375,25279.287109375,-6453.77001953125,-59450.1328125,-56482.296875,22142.435546875,-2960.4150390625,7746.953125,18128.173828125,-25428.45703125,44633.25,-331251.78125,18966.697265625,9822.2099609375,-34606.19140625,827.4530029296875,-5741.89013671875,37255.88671875,16223.3173828125,25835.478515625,-23429.51953125,-1920.092041015625,35295.53515625,-373663.0,15323.2138671875,36145.8515625,-37754.8515625,14724.0830078125,-5303.73583984375,11059.595466364999
-31600.671875,14528.333984375,22105.658203125,2462.952880859375,25249.654296875,-6491.62109375,-59469.82421875,-56509.1953125,22115.3125,-3019.881103515625,7729.55419921875,18102.984375,-25391.568359375,44648.1328125,-331286.3125,18951.544921875,9903.0634765625,-34624.36328125,837.3770141601562,-5769.67919921875,37248.55859375,16217.892578125,25885.39453125,-23436.45703125,-1959.31103515625,35276.52734375,-373700.34375,15305.9697265625,36142.84765625,-37798.4609375,14735.984375,-5350.89404296875,11059.597466365
-31605.724609375,14520.3251953125,22109.177734375,2455.553955078125,25243.1171875,-6500.291015625,-59480.46484375,-56516.82421875,22114.669921875,-3016.320068359375,7721.14306640625,18124.353515625,-25349.025390625,44683.71875,-331297.96875,18956.4375,9943.0087890625,-34622.60546875,882.4439697265625,-5778.10498046875,37255.4921875,16238.1630859375,25916.26953125,-23399.82421875,-1967.98095703125,35274.26171875,-373712.84375,15309.42578125,36166.9609375,-37805.3125,14768.2568359375,-5361.5390625,11059.599466365
